SpectraSuite Datei
++++++++++++++++++++++++++++++++++++
Datum: Wed Nov 28 11:19:00 CET 2018
Benutzer: Raman
Dark-Spektrum vorhanden: Ja
Referenz-Spektrum vorhanden: Nein
Zahl der probierten Teilspektren: 1
Spektrometer: USB4F00098
Integrationszeit (usec): 4700000 (USB4F00098)
Spektren Durchschnitt berechnet: 1 (USB4F00098)
Boxcar Glättung: 0 (USB4F00098)
Dunkelstromkorrektur: Nein (USB4F00098)
Puls/Lampe aktiviert: Nein (USB4F00098)
Correct for Detector Non-linearity: Nein (USB4F00098)
Streulichtkorrektur: Nein (USB4F00098)
Anzahl Pixel in verarbeitetem Spektrum: 3648
>>>>>Begin Processed Spectral Data<<<<<
-2184,52	-45,06
-2181,51	-45,06
-2178,50	-45,06
-2175,49	-43,01
-2172,49	28,67
-2169,48	-49,15
-2166,48	98,30
-2163,48	-61,44
-2160,47	45,06
-2157,47	63,49
-2154,47	-63,49
-2151,48	-126,97
-2148,48	2,05
-2145,49	-51,20
-2142,49	12,29
-2139,50	-137,21
-2136,51	-18,43
-2133,52	-104,45
-2130,53	59,39
-2127,54	16,38
-2124,55	71,68
-2121,57	81,92
-2118,58	0,00
-2115,60	110,59
-2112,62	92,16
-2109,64	4,10
-2106,66	206,84
-2103,68	34,82
-2100,70	86,01
-2097,73	77,82
-2094,75	92,16
-2091,78	43,01
-2088,81	120,83
-2085,83	73,73
-2082,86	77,82
-2079,90	32,77
-2076,93	32,77
-2073,96	28,67
-2071,00	90,11
-2068,03	86,01
-2065,07	110,59
-2062,11	77,82
-2059,15	81,92
-2056,19	155,65
-2053,23	135,17
-2050,27	-2,05
-2047,32	24,58
-2044,36	108,54
-2041,41	61,44
-2038,46	94,21
-2035,51	-106,49
-2032,56	81,92
-2029,61	79,87
-2026,66	16,38
-2023,72	-10,24
-2020,77	57,34
-2017,83	69,63
-2014,88	-20,48
-2011,94	51,20
-2009,00	92,16
-2006,06	-55,30
-2003,13	133,12
-2000,19	-32,77
-1997,25	59,39
-1994,32	-30,72
-1991,39	159,74
-1988,45	12,29
-1985,52	4,10
-1982,59	10,24
-1979,67	124,93
-1976,74	4,10
-1973,81	118,78
-1970,89	137,21
-1967,96	0,00
-1965,04	20,48
-1962,12	8,19
-1959,20	159,74
-1956,28	71,68
-1953,36	153,60
-1950,45	18,43
-1947,53	69,63
-1944,62	40,96
-1941,70	18,43
-1938,79	-2,05
-1935,88	88,06
-1932,97	-12,29
-1930,06	129,02
-1927,15	86,01
-1924,25	-8,19
-1921,34	24,58
-1918,44	126,97
-1915,54	30,72
-1912,63	47,10
-1909,73	77,82
-1906,83	-6,14
-1903,94	225,28
-1901,04	67,58
-1898,14	79,87
-1895,25	137,21
-1892,36	176,13
-1889,46	83,97
-1886,57	120,83
-1883,68	-106,49
-1880,79	129,02
-1877,91	-10,24
-1875,02	-12,29
-1872,13	192,51
-1869,25	118,78
-1866,37	92,16
-1863,48	43,01
-1860,60	-8,19
-1857,72	45,06
-1854,84	147,45
-1851,97	186,37
-1849,09	-24,58
-1846,22	163,84
-1843,34	104,45
-1840,47	118,78
-1837,60	47,10
-1834,73	86,01
-1831,86	145,41
-1828,99	81,92
-1826,12	106,49
-1823,26	59,39
-1820,39	126,97
-1817,53	18,43
-1814,67	182,27
-1811,80	-51,20
-1808,94	-16,38
-1806,08	155,65
-1803,23	28,67
-1800,37	55,30
-1797,51	-14,34
-1794,66	-14,34
-1791,81	-165,89
-1788,95	116,73
-1786,10	-53,25
-1783,25	-24,58
-1780,40	-57,34
-1777,56	59,39
-1774,71	172,03
-1771,86	-63,49
-1769,02	-2,05
-1766,18	-45,06
-1763,33	98,30
-1760,49	90,11
-1757,65	40,96
-1754,81	-40,96
-1751,98	10,24
-1749,14	-8,19
-1746,30	24,58
-1743,47	81,92
-1740,64	65,53
-1737,81	34,82
-1734,97	186,37
-1732,14	172,03
-1729,32	104,45
-1726,49	-57,34
-1723,66	184,32
-1720,84	120,83
-1718,01	96,25
-1715,19	145,41
-1712,37	40,96
-1709,55	143,36
-1706,73	90,11
-1703,91	137,21
-1701,09	192,51
-1698,27	124,93
-1695,46	145,41
-1692,65	147,45
-1689,83	55,30
-1687,02	55,30
-1684,21	38,91
-1681,40	-2,05
-1678,59	169,98
-1675,78	34,82
-1672,98	16,38
-1670,17	-36,86
-1667,37	139,26
-1664,56	137,21
-1661,76	28,67
-1658,96	88,06
-1656,16	98,30
-1653,36	182,27
-1650,57	206,84
-1647,77	104,45
-1644,97	81,92
-1642,18	-81,92
-1639,39	-10,24
-1636,60	163,84
-1633,80	55,30
-1631,01	65,53
-1628,23	182,27
-1625,44	71,68
-1622,65	90,11
-1619,87	106,49
-1617,08	233,47
-1614,30	176,13
-1611,52	163,84
-1608,74	112,64
-1605,96	18,43
-1603,18	237,56
-1600,40	26,62
-1597,62	104,45
-1594,85	129,02
-1592,07	169,98
-1589,30	-73,73
-1586,53	16,38
-1583,76	241,66
-1580,99	221,18
-1578,22	28,67
-1575,45	77,82
-1572,68	126,97
-1569,92	71,68
-1567,15	118,78
-1564,39	159,74
-1561,63	249,85
-1558,86	182,27
-1556,10	90,11
-1553,34	137,21
-1550,59	-75,77
-1547,83	133,12
-1545,07	206,84
-1542,32	49,15
-1539,56	65,54
-1536,81	53,25
-1534,06	-4,10
-1531,31	77,82
-1528,56	143,36
-1525,81	153,60
-1523,06	38,91
-1520,32	155,65
-1517,57	-38,91
-1514,83	149,50
-1512,09	233,47
-1509,34	114,69
-1506,60	-36,86
-1503,86	227,32
-1501,12	169,98
-1498,39	194,56
-1495,65	63,49
-1492,91	161,79
-1490,18	126,97
-1487,45	49,15
-1484,71	0,00
-1481,98	71,68
-1479,25	165,89
-1476,52	108,54
-1473,80	131,07
-1471,07	143,36
-1468,34	180,22
-1465,62	83,97
-1462,89	6,14
-1460,17	286,72
-1457,45	53,25
-1454,73	217,08
-1452,01	258,04
-1449,29	159,74
-1446,57	75,77
-1443,86	198,65
-1441,14	241,66
-1438,43	114,69
-1435,71	155,65
-1433,00	217,08
-1430,29	122,88
-1427,58	57,34
-1424,87	34,82
-1422,16	34,82
-1419,46	210,94
-1416,75	145,41
-1414,05	200,70
-1411,34	253,95
-1408,64	206,84
-1405,94	210,94
-1403,24	182,27
-1400,54	120,83
-1397,84	-1357,80
-1395,14	104,45
-1392,45	241,66
-1389,75	45,06
-1387,06	167,93
-1384,36	145,41
-1381,67	-16,38
-1378,98	114,69
-1376,29	178,17
-1373,60	190,46
-1370,91	188,41
-1368,23	204,80
-1365,54	81,92
-1362,86	141,31
-1360,17	212,99
-1357,49	126,97
-1354,81	141,31
-1352,13	184,32
-1349,45	47,10
-1346,77	278,52
-1344,09	368,63
-1341,42	174,08
-1338,74	335,87
-1336,07	208,89
-1333,39	237,56
-1330,72	151,55
-1328,05	227,32
-1325,38	229,37
-1322,71	251,90
-1320,04	262,14
-1317,37	174,08
-1314,71	172,03
-1312,04	161,79
-1309,38	139,26
-1306,72	124,93
-1304,05	268,28
-1301,39	124,93
-1298,73	210,94
-1296,08	167,93
-1293,42	153,60
-1290,76	235,52
-1288,10	196,61
-1285,45	114,69
-1282,80	311,29
-1280,14	299,00
-1277,49	212,99
-1274,84	100,35
-1272,19	247,80
-1269,54	182,27
-1266,90	256,00
-1264,25	256,00
-1261,60	366,59
-1258,96	301,05
-1256,32	135,17
-1253,67	217,08
-1251,03	360,44
-1248,39	270,33
-1245,75	243,71
-1243,11	223,23
-1240,48	319,48
-1237,84	311,29
-1235,20	315,39
-1232,57	278,52
-1229,94	83,97
-1227,31	208,89
-1224,67	309,24
-1222,04	262,14
-1219,41	280,57
-1216,79	274,43
-1214,16	188,41
-1211,53	182,27
-1208,91	231,42
-1206,28	262,14
-1203,66	229,37
-1201,04	403,45
-1198,42	190,46
-1195,80	67,58
-1193,18	317,44
-1190,56	288,76
-1187,94	473,08
-1185,33	483,32
-1182,71	391,16
-1180,10	325,63
-1177,49	186,37
-1174,87	221,18
-1172,26	327,68
-1169,65	270,33
-1167,04	231,42
-1164,44	335,87
-1161,83	247,80
-1159,22	288,76
-1156,62	178,17
-1154,01	321,53
-1151,41	395,26
-1148,81	428,03
-1146,21	333,82
-1143,61	202,75
-1141,01	419,83
-1138,41	376,83
-1135,81	292,86
-1133,22	331,77
-1130,62	309,24
-1128,03	333,82
-1125,44	344,06
-1122,84	303,10
-1120,25	339,96
-1117,66	528,38
-1115,07	395,26
-1112,49	294,91
-1109,90	274,43
-1107,31	354,30
-1104,73	290,81
-1102,14	489,46
-1099,56	161,79
-1096,98	356,35
-1094,40	360,44
-1091,82	212,99
-1089,24	511,99
-1086,66	301,05
-1084,08	399,35
-1081,51	366,59
-1078,93	446,46
-1076,36	378,87
-1073,79	567,29
-1071,21	352,25
-1068,64	358,39
-1066,07	446,46
-1063,50	428,03
-1060,93	622,58
-1058,37	423,93
-1055,80	325,63
-1053,24	550,90
-1050,67	329,72
-1048,11	411,64
-1045,55	366,59
-1042,99	532,47
-1040,42	354,30
-1037,87	559,10
-1035,31	391,16
-1032,75	419,83
-1030,19	354,30
-1027,64	458,74
-1025,08	460,79
-1022,53	722,93
-1019,98	452,60
-1017,43	501,75
-1014,88	495,61
-1012,33	493,56
-1009,78	555,00
-1007,23	583,67
-1004,68	643,06
-1002,14	483,32
-999,59	462,84
-997,05	606,20
-994,51	415,74
-991,96	583,67
-989,42	495,61
-986,88	362,49
-984,34	540,66
-981,81	514,04
-979,27	483,32
-976,73	606,20
-974,20	511,99
-971,66	573,43
-969,13	591,86
-966,60	708,60
-964,07	577,53
-961,54	569,34
-959,01	581,62
-956,48	571,38
-953,95	696,31
-951,43	696,31
-948,90	696,31
-946,38	589,82
-943,85	608,25
-941,33	622,58
-938,81	786,42
-936,29	675,83
-933,77	636,92
-931,25	780,28
-928,73	616,44
-926,22	595,96
-923,70	591,86
-921,19	569,34
-918,67	862,19
-916,16	761,84
-913,65	604,15
-911,14	712,69
-908,63	837,62
-906,12	671,73
-903,61	829,43
-901,10	788,47
-898,59	649,21
-896,09	790,52
-893,59	827,38
-891,08	888,82
-888,58	755,70
-886,08	739,32
-883,58	866,29
-881,08	993,26
-878,58	921,59
-876,08	821,24
-873,58	804,85
-871,09	821,24
-868,59	757,75
-866,10	974,83
-863,61	880,63
-861,12	753,65
-858,62	765,94
-856,13	935,92
-853,64	968,69
-851,16	962,55
-848,67	770,04
-846,18	985,07
-843,70	802,80
-841,21	954,35
-838,73	962,55
-836,25	985,07
-833,77	892,91
-831,28	1079,28
-828,81	886,77
-826,33	968,69
-823,85	1103,86
-821,37	1001,46
-818,90	950,26
-816,42	974,83
-813,95	1017,84
-811,47	1066,99
-809,00	993,26
-806,53	1322,99
-804,06	1054,70
-801,59	1028,08
-799,12	1097,71
-796,65	1103,86
-794,19	999,41
-791,72	1107,95
-789,26	1173,49
-786,79	1110,00
-784,33	1210,35
-781,87	1245,16
-779,41	1294,32
-776,95	1310,70
-774,49	1230,83
-772,03	1189,87
-769,57	1163,25
-767,12	1415,15
-764,66	1400,81
-762,21	1241,07
-759,75	1288,17
-757,30	1335,28
-754,85	1435,63
-752,40	1533,93
-749,95	1492,97
-747,50	1527,78
-745,05	1458,15
-742,60	1523,69
-740,16	1497,07
-737,71	1466,35
-735,27	1654,76
-732,82	1732,58
-730,38	1562,60
-727,94	1646,57
-725,50	1671,14
-723,06	1656,81
-720,62	1552,36
-718,18	1681,38
-715,74	1515,50
-713,31	1669,09
-710,87	1738,73
-708,44	1640,42
-706,01	1441,77
-703,57	1781,73
-701,14	1665,00
-698,71	1447,91
-696,28	1648,61
-693,85	1529,83
-691,42	1564,65
-689,00	1841,12
-686,57	1687,53
-684,15	1693,67
-681,72	1681,38
-679,30	1759,21
-676,88	1800,16
-674,45	2045,92
-672,03	2027,49
-669,61	2244,57
-667,20	2408,41
-664,78	2828,24
-662,36	2871,25
-659,94	3217,36
-657,53	3348,43
-655,12	3393,48
-652,70	3405,77
-650,29	3301,33
-647,88	3260,37
-645,47	3295,18
-643,06	2971,60
-640,65	2885,59
-638,24	2805,72
-635,83	2811,86
-633,43	2660,31
-631,02	2527,19
-628,62	2336,73
-626,22	2398,17
-623,81	2238,43
-621,41	2172,89
-619,01	2125,79
-616,61	2338,78
-614,21	2029,54
-611,81	2226,14
-609,42	2183,13
-607,02	2095,07
-604,63	2183,13
-602,23	2164,70
-599,84	2107,36
-597,45	2017,25
-595,05	2447,32
-592,66	2211,81
-590,27	2320,35
-587,88	2224,09
-585,50	2228,19
-583,11	2318,30
-580,72	2404,32
-578,34	2265,05
-575,95	2279,39
-573,57	2510,81
-571,19	2340,83
-568,80	2445,27
-566,42	2379,74
-564,04	2549,72
-561,66	2379,74
-559,29	2600,92
-556,91	2596,82
-554,53	2676,70
-552,16	2652,12
-549,78	2807,77
-547,41	2549,72
-545,03	2680,79
-542,66	2654,17
-540,29	2555,86
-537,92	2562,01
-535,55	2557,91
-533,18	2668,50
-530,81	2654,17
-528,45	2693,08
-526,08	2832,34
-523,72	2742,23
-521,35	2928,60
-518,99	2981,84
-516,63	2865,11
-514,27	2967,51
-511,90	3010,51
-509,54	3108,82
-507,19	2987,99
-504,83	2893,78
-502,47	3164,11
-500,11	3219,41
-497,76	3252,17
-495,40	2987,99
-493,05	3041,23
-490,70	2990,03
-488,35	2867,16
-486,00	2990,03
-483,65	3256,27
-481,30	3035,09
-478,95	3248,08
-476,60	3057,62
-474,25	3274,70
-471,91	2977,75
-469,56	2955,22
-467,22	3030,99
-464,88	3108,82
-462,53	2877,40
-460,19	2985,94
-457,85	2897,88
-455,51	2813,91
-453,17	2676,70
-450,84	2645,98
-448,50	2684,89
-446,16	2551,77
-443,83	2363,36
-441,49	2303,96
-439,16	2361,31
-436,83	2230,24
-434,50	1947,62
-432,16	2045,92
-429,83	1947,62
-427,50	1597,42
-425,18	1355,76
-422,85	1368,04
-420,52	1241,07
-418,20	1345,52
-415,87	1028,08
-413,55	1183,73
-411,22	817,14
-408,90	706,55
-406,58	767,99
-404,26	567,29
-401,94	464,89
-399,62	417,79
-397,30	430,07
-394,99	407,55
-392,67	290,81
-390,35	436,22
-388,04	137,21
-385,73	169,98
-383,41	264,19
-381,10	75,77
-378,79	133,12
-376,48	180,22
-374,17	120,83
-371,86	-10,24
-369,55	83,97
-367,25	186,37
-364,94	180,22
-362,64	317,44
-360,33	-12,29
-358,03	32,77
-355,73	206,84
-353,42	-22,53
-351,12	-6,14
-348,82	264,19
-346,52	100,35
-344,23	-30,72
-341,93	77,82
-339,63	129,02
-337,34	157,69
-335,04	163,84
-332,75	126,97
-330,45	161,79
-328,16	145,41
-325,87	61,44
-323,58	10,24
-321,29	227,32
-319,00	104,45
-316,71	36,86
-314,42	145,41
-312,14	61,44
-309,85	34,82
-307,57	79,87
-305,28	104,45
-303,00	96,25
-300,72	102,40
-298,44	2,05
-296,16	36,86
-293,88	-18,43
-291,60	-53,25
-289,32	-49,15
-287,04	210,94
-284,77	86,01
-282,49	53,25
-280,22	-30,72
-277,94	133,12
-275,67	86,01
-273,40	212,99
-271,13	73,73
-268,85	196,61
-266,59	88,06
-264,32	77,82
-262,05	149,50
-259,78	67,58
-257,51	-51,20
-255,25	57,34
-252,98	-34,82
-250,72	114,69
-248,46	86,01
-246,20	32,77
-243,93	141,31
-241,67	147,45
-239,41	55,30
-237,16	102,40
-234,90	-20,48
-232,64	10,24
-230,38	-67,58
-228,13	-88,06
-225,87	14,34
-223,62	143,36
-221,37	180,22
-219,11	133,12
-216,86	92,16
-214,61	-22,53
-212,36	16,38
-210,11	34,82
-207,87	26,62
-205,62	98,30
-203,37	51,20
-201,13	45,06
-198,88	172,03
-196,64	-63,49
-194,39	6,14
-192,15	94,21
-189,91	65,54
-187,67	67,58
-185,43	69,63
-183,19	49,15
-180,95	143,36
-178,72	63,49
-176,48	2,05
-174,24	200,70
-172,01	124,93
-169,77	43,01
-167,54	10,24
-165,31	49,15
-163,08	10,24
-160,85	-65,53
-158,62	124,93
-156,39	110,59
-154,16	73,73
-151,93	38,91
-149,70	192,51
-147,48	96,25
-145,25	10,24
-143,03	100,35
-140,81	110,59
-138,58	77,82
-136,36	32,77
-134,14	55,30
-131,92	139,26
-129,70	-10,24
-127,48	73,73
-125,26	137,21
-123,05	22,53
-120,83	61,44
-118,62	161,79
-116,40	79,87
-114,19	2,05
-111,97	182,27
-109,76	165,89
-107,55	73,73
-105,34	36,86
-103,13	-6,14
-100,92	88,06
-98,71	184,32
-96,51	139,26
-94,30	165,89
-92,09	90,11
-89,89	-28,67
-87,69	86,01
-85,48	18,43
-83,28	61,44
-81,08	163,84
-78,88	77,82
-76,68	38,91
-74,48	79,87
-72,28	79,87
-70,08	198,65
-67,88	73,73
-65,69	96,25
-63,49	106,49
-61,30	165,89
-59,11	253,95
-56,91	245,76
-54,72	229,37
-52,53	225,28
-50,34	169,98
-48,15	122,88
-45,96	167,93
-43,77	237,56
-41,59	139,26
-39,40	192,51
-37,21	167,93
-35,03	237,56
-32,84	296,96
-30,66	299,00
-28,48	329,72
-26,30	598,01
-24,12	620,53
-21,94	1497,07
-19,76	2783,19
-17,58	5427,12
-15,40	10424,16
-13,22	18368,23
-11,05	24647,30
-8,87	31233,57
-6,70	34151,93
-4,52	38688,18
-2,35	41454,98
-0,18	44596,57
1,99	41078,16
4,16	37746,11
6,33	31991,32
8,50	27029,09
10,67	22464,17
12,84	19244,76
15,00	15525,65
17,17	12537,66
19,33	10106,73
21,50	8234,88
23,66	6408,09
25,83	4845,49
27,99	3286,99
30,15	2107,36
32,31	1538,02
34,47	987,12
36,63	702,45
38,79	595,96
40,94	380,92
43,10	192,51
45,25	260,09
47,41	227,32
49,56	239,61
51,72	225,28
53,87	184,32
56,02	266,24
58,17	268,28
60,32	227,32
62,47	272,38
64,62	161,79
66,77	235,52
68,92	268,28
71,06	399,35
73,21	319,48
75,35	264,19
77,50	352,25
79,64	393,21
81,78	321,53
83,92	360,44
86,06	389,11
88,20	700,41
90,34	688,12
92,48	792,56
94,62	899,06
96,76	1044,46
98,89	1128,43
101,03	1185,77
103,16	1382,38
105,30	1558,50
107,43	1861,60
109,56	1980,39
111,69	2244,57
113,82	2508,76
115,95	2680,79
118,08	3016,66
120,21	3311,57
122,34	3643,34
124,47	3805,13
126,59	4204,48
128,72	4188,10
130,84	4759,48
132,97	5081,01
135,09	5248,94
137,21	5877,67
139,33	5945,25
141,45	6682,52
143,57	6813,59
145,69	7180,18
147,81	7380,88
149,93	7841,67
152,05	8132,48
154,16	8626,04
156,28	8644,48
158,39	9168,76
160,51	9260,91
162,62	9564,01
164,73	9760,62
166,85	10002,28
168,96	10286,95
171,07	10555,23
173,18	10766,17
175,28	10913,63
177,39	10905,43
179,50	11353,94
181,61	11175,77
183,71	11867,98
185,82	11689,81
187,92	12570,43
190,02	12435,27
192,13	12635,97
194,23	12556,10
196,33	12891,96
198,43	12754,75
200,53	13061,94
202,63	12943,16
204,72	13598,51
206,82	13256,50
208,92	14014,25
211,01	13348,66
213,11	13807,41
215,20	13604,66
217,30	13909,80
219,39	13631,28
221,48	14044,97
223,57	13741,87
225,66	14108,46
227,75	14341,93
229,84	15019,80
231,93	15079,19
234,02	15370,01
236,10	15888,14
238,19	16402,18
240,28	17030,91
242,36	19050,21
244,44	20911,81
246,53	22730,41
248,61	25562,75
250,69	28466,77
252,77	30895,66
254,85	32341,52
256,93	34018,81
259,01	34907,63
261,09	34899,44
263,16	34121,21
265,24	33674,75
267,32	31448,61
269,39	29222,47
271,46	27870,81
273,54	25108,10
275,61	23801,49
277,68	21468,86
279,75	20813,51
281,82	18706,15
283,89	19138,27
285,96	17735,41
288,03	17387,25
290,10	17221,37
292,16	16463,62
294,23	15988,49
296,29	16340,74
298,36	16181,00
300,42	15582,99
302,49	15845,13
304,55	15359,77
306,61	15818,51
308,67	15425,30
310,73	15261,46
312,79	15652,63
314,85	15300,37
316,90	15904,53
318,96	15939,34
321,02	15810,32
323,07	15642,39
325,13	15466,26
327,18	15531,80
329,24	15834,89
331,29	15812,37
333,34	16232,20
335,39	15853,33
337,44	17004,28
339,49	16799,49
341,54	16983,80
343,59	17739,51
345,64	19013,34
347,68	21063,36
349,73	24757,89
351,77	28571,21
353,82	33885,69
355,86	40588,69
357,90	44557,66
359,95	47834,41
361,99	48878,87
364,03	49868,04
366,07	49126,67
368,11	47052,08
370,15	43529,58
372,19	37985,72
374,22	33883,64
376,26	31057,45
378,29	28765,77
380,33	25853,56
382,36	23815,83
384,40	22204,08
386,43	20893,38
388,46	19306,20
390,49	18624,23
392,52	17725,17
394,55	17039,10
396,58	16983,80
398,61	17215,23
400,64	16639,75
402,67	16930,56
404,69	16869,12
406,72	17405,69
408,74	17053,44
410,77	16594,69
412,79	17004,28
414,81	16424,71
416,84	16199,43
418,86	16832,26
420,88	16488,20
422,90	16822,02
424,92	16621,31
426,94	16887,55
428,95	16934,65
430,97	16989,95
432,99	17026,81
435,00	16965,37
437,02	17327,86
439,03	17364,73
441,04	16615,17
443,06	17460,98
445,07	17039,10
447,08	17151,74
449,09	16897,79
451,10	17291,00
453,11	16834,30
455,12	16979,71
457,13	17104,64
459,13	16942,85
461,14	17334,01
463,14	16819,97
465,15	16715,52
467,15	17399,54
469,16	17221,37
471,16	17278,71
473,16	17006,33
475,16	17374,97
477,16	17168,12
479,16	17403,64
481,16	17020,67
483,16	17221,37
485,16	17174,27
487,15	17809,14
489,15	17579,76
491,15	17215,23
493,14	17280,76
495,14	17209,08
497,13	17463,03
499,12	17565,43
501,11	17596,15
503,11	17807,09
505,10	17354,49
507,09	16862,97
509,07	17602,29
511,06	17583,86
513,05	17164,03
515,04	17551,09
517,02	17600,24
519,01	17659,63
521,00	17460,98
522,98	18249,45
524,96	18421,48
526,95	18124,52
528,93	17950,45
530,91	18464,49
532,89	18018,03
534,87	18253,55
536,85	17895,15
538,83	17764,08
540,81	17817,33
542,78	17850,10
544,76	18132,72
546,74	17895,15
548,71	18061,04
550,69	17813,23
552,66	18282,22
554,63	17665,78
556,60	18128,62
558,58	18001,65
560,55	18097,90
562,52	18386,66
564,49	18312,94
566,46	18800,35
568,42	18085,61
570,39	17723,12
572,36	18220,78
574,32	18083,56
576,29	18132,72
578,25	18321,13
580,22	18013,93
582,18	18126,57
584,14	18747,11
586,11	18249,45
588,07	18048,75
590,03	18132,72
591,99	18206,44
593,95	18654,95
595,90	18370,28
597,86	18892,51
599,82	18460,39
601,78	18796,26
603,73	19044,06
605,69	18861,79
607,64	19058,40
609,59	19207,90
611,55	19279,58
613,50	19439,32
615,45	18863,84
617,40	18669,28
619,35	19238,62
621,30	19066,59
623,25	19853,01
625,20	19834,58
627,15	20778,69
629,09	21368,51
631,04	21984,94
632,98	24546,95
634,93	26988,13
636,87	31536,67
638,82	36404,69
640,76	43017,58
642,70	49685,77
644,64	54547,65
646,58	57412,76
648,52	59454,58
650,46	59249,78
652,40	57392,28
654,34	53462,22
656,27	49100,05
658,21	44414,30
660,15	39030,19
662,08	35526,11
664,02	32431,63
665,95	29511,23
667,88	27784,79
669,82	25255,55
671,75	24241,81
673,68	22697,64
675,61	21968,56
677,54	21272,25
679,47	20479,69
681,40	20475,59
683,32	20496,07
685,25	20534,98
687,18	20766,40
689,10	20270,79
691,03	20778,69
692,95	20598,47
694,87	20408,01
696,80	20266,70
698,72	20645,57
700,64	20907,71
702,56	20848,32
704,48	21305,02
706,40	21118,65
708,32	21634,74
710,24	21481,14
712,16	21855,92
714,07	22306,48
715,99	22425,26
717,90	22771,36
719,82	23363,23
721,73	23803,54
723,65	24145,55
725,56	24192,65
727,47	25147,01
729,38	25546,36
731,29	25306,75
733,20	25599,61
735,11	26322,54
737,02	25341,57
738,93	25632,38
740,84	25902,71
742,74	26183,28
744,65	25919,09
746,55	25910,90
748,46	25364,09
750,36	25202,30
752,27	24497,80
754,17	23987,86
756,07	23244,45
757,97	22691,49
759,87	22525,61
761,77	22470,31
763,67	22423,21
765,57	21894,83
767,47	21479,10
769,37	21518,01
771,26	21186,24
773,16	21055,17
775,06	21794,48
776,95	21423,80
778,84	21251,77
780,74	21225,15
782,63	21157,57
784,52	20981,44
786,41	21331,64
788,30	21348,03
790,19	20997,82
792,08	21427,90
793,97	21384,89
795,86	21151,42
797,75	21089,98
799,63	21110,46
801,52	21569,21
803,41	21212,86
805,29	21714,61
807,18	20733,64
809,06	21173,95
810,94	20768,45
812,82	20739,78
814,70	20383,43
816,59	21532,34
818,47	21337,79
820,35	21292,73
822,22	21022,40
824,10	21061,31
825,98	20897,47
827,86	21176,00
829,73	21657,27
831,61	21554,87
833,48	20621,00
835,36	21135,04
837,23	20903,62
839,10	21403,32
840,98	20952,77
842,85	21741,24
844,72	21255,87
846,59	21032,64
848,46	21831,35
850,33	21472,95
852,20	21518,01
854,06	22073,01
855,93	21384,89
857,80	21550,78
859,66	21610,17
861,53	21673,65
863,39	21554,87
865,26	21929,65
867,12	21978,80
868,98	21817,01
870,84	22132,40
872,71	21868,21
874,57	21927,60
876,43	22439,59
878,29	22396,59
880,14	22199,98
882,00	22441,64
883,86	21597,88
885,72	22507,18
887,57	22365,87
889,43	23049,89
891,28	23146,14
893,14	23113,38
894,99	23774,87
896,84	23662,23
898,69	23729,81
900,55	23695,00
902,40	24057,49
904,25	24209,04
906,10	24424,08
907,95	24620,68
909,79	24845,96
911,64	24512,14
913,49	24483,47
915,34	24209,04
917,18	24356,49
919,03	23670,42
920,87	24024,72
922,71	23805,59
924,56	24172,18
926,40	24104,59
928,24	23785,11
930,08	23465,63
931,92	23346,84
933,76	23203,49
935,60	22705,83
937,44	22488,74
939,28	22744,74
941,12	22578,86
942,95	23570,07
944,79	22765,22
946,62	23060,13
948,46	22769,32
950,29	23000,74
952,13	22662,82
953,96	22513,32
955,79	22681,25
957,62	22822,56
959,46	22480,55
961,29	22814,37
963,12	23035,55
964,94	23023,26
966,77	22994,59
968,60	23301,79
970,43	23008,93
972,25	23324,32
974,08	23316,12
975,91	22787,75
977,73	22744,74
979,55	23266,97
981,38	23549,59
983,20	22859,43
985,02	23096,99
986,84	22687,40
988,66	22619,81
990,49	22906,53
992,30	23260,83
994,12	22548,14
995,94	23424,67
997,76	22718,12
999,58	23154,33
1001,39	22910,63
1003,21	23266,97
1005,02	23117,47
1006,84	23092,90
1008,65	23070,37
1010,47	22826,66
1012,28	22900,39
1014,09	22814,37
1015,90	22740,64
1017,71	23686,81
1019,52	23152,29
1021,33	23408,28
1023,14	23367,32
1024,95	22460,07
1026,76	22791,84
1028,56	22781,60
1030,37	23219,87
1032,18	23072,42
1033,98	23412,38
1035,79	22908,58
1037,59	23115,42
1039,39	23322,27
1041,20	23465,63
1043,00	23211,68
1044,80	23234,21
1046,60	22752,93
1048,40	22775,46
1050,20	23203,49
1052,00	23387,80
1053,80	22955,68
1055,59	23361,18
1057,39	23242,40
1059,19	23305,88
1060,98	24120,98
1062,78	23414,43
1064,57	23410,33
1066,37	23236,25
1068,16	23422,62
1069,95	23594,65
1071,75	23418,52
1073,54	23359,13
1075,33	23830,16
1077,12	23781,01
1078,91	23465,63
1080,70	23819,92
1082,48	23778,97
1084,27	23230,11
1086,06	23920,28
1087,85	23180,96
1089,63	24045,20
1091,42	23979,67
1093,20	24010,39
1094,99	23649,94
1096,77	23645,85
1098,55	24245,90
1100,33	24239,76
1102,12	24090,26
1103,90	24022,67
1105,68	23461,53
1107,46	24043,15
1109,24	23797,40
1111,01	23740,05
1112,79	23846,55
1114,57	23539,35
1116,35	23500,44
1118,12	23449,24
1119,90	24512,14
1121,67	23998,10
1123,45	24542,86
1125,22	23424,67
1126,99	24163,98
1128,77	24247,95
1130,54	23971,47
1132,31	24188,56
1134,08	24340,11
1135,85	24368,78
1137,62	24211,09
1139,39	24020,63
1141,15	24632,97
1142,92	24276,62
1144,69	23981,71
1146,46	24469,13
1148,22	24534,67
1149,99	24954,50
1151,75	24788,61
1153,51	24096,40
1155,28	24137,36
1157,04	24327,82
1158,80	24385,16
1160,56	24671,88
1162,32	24770,18
1164,08	24485,51
1165,84	24583,82
1167,60	24206,99
1169,36	25089,67
1171,12	24483,47
1172,88	24821,38
1174,63	24350,35
1176,39	24366,73
1178,14	24475,27
1179,90	24952,45
1181,65	25349,76
1183,41	25050,75
1185,16	25202,30
1186,91	24694,41
1188,66	25128,58
1190,41	24585,86
1192,16	24282,77
1193,91	24565,39
1195,66	24319,63
1197,41	24970,88
1199,16	24608,39
1200,91	24362,64
1202,66	24718,98
1204,40	24972,93
1206,15	24546,95
1207,89	24905,35
1209,64	24766,09
1211,38	24825,48
1213,12	24915,59
1214,87	25486,97
1216,61	25124,48
1218,35	24966,79
1220,09	25208,45
1221,83	24864,39
1223,57	25204,35
1225,31	24716,93
1227,05	24929,92
1228,79	25022,08
1230,52	25015,94
1232,26	25722,49
1234,00	25708,15
1235,73	24944,26
1237,47	24145,55
1239,20	25042,56
1240,94	24940,16
1242,67	24901,25
1244,40	25079,43
1246,13	25687,67
1247,86	25321,09
1249,60	25470,59
1251,33	25370,24
1253,06	25462,40
1254,78	24659,59
1256,51	25839,22
1258,24	25497,21
1259,97	25394,81
1261,69	25208,45
1263,42	24829,57
1265,15	25351,81
1266,87	25411,20
1268,59	24815,24
1270,32	25099,91
1272,04	25292,41
1273,76	25288,32
1275,49	24635,02
1277,21	25190,02
1278,93	25446,01
1280,65	25337,47
1282,37	24878,72
1284,09	24821,38
1285,81	25060,99
1287,52	25452,16
1289,24	24989,31
1290,96	24972,93
1292,67	24936,07
1294,39	25347,71
1296,10	25001,60
1297,82	24911,49
1299,53	25568,89
1301,24	25312,89
1302,96	25597,56
1304,67	24929,92
1306,38	25749,11
1308,09	25765,49
1309,80	24864,39
1311,51	25192,06
1313,22	25351,81
1314,93	25247,36
1316,64	25067,14
1318,34	25165,44
1320,05	25323,13
1321,75	25003,65
1323,46	25177,73
1325,17	24907,40
1326,87	24837,76
1328,57	25605,75
1330,28	25067,14
1331,98	25306,75
1333,68	25220,74
1335,38	25163,39
1337,08	25714,30
1338,78	26099,31
1340,48	26050,16
1342,18	25837,17
1343,88	25624,18
1345,58	25321,09
1347,28	25271,93
1348,97	25835,13
1350,67	25714,30
1352,36	25294,46
1354,06	25896,56
1355,75	25849,46
1357,45	25552,51
1359,14	25986,68
1360,83	25040,51
1362,53	24698,50
1364,22	25515,64
1365,91	25124,48
1367,60	24839,81
1369,29	25355,90
1370,98	25749,11
1372,67	25357,95
1374,35	25458,30
1376,04	25523,83
1377,73	26064,50
1379,41	25593,47
1381,10	25067,14
1382,79	25398,91
1384,47	25532,03
1386,15	25462,40
1387,84	25079,43
1389,52	25476,73
1391,20	25577,08
1392,88	24868,48
1394,57	25988,72
1396,25	25316,99
1397,93	24936,07
1399,61	25458,30
1401,28	25222,78
1402,96	25446,01
1404,64	26080,88
1406,32	25757,30
1407,99	25677,43
1409,67	25863,80
1411,35	25747,06
1413,02	25421,44
1414,70	25079,43
1416,37	25464,44
1418,04	25265,79
1419,71	25419,39
1421,39	25861,75
1423,06	25841,27
1424,73	25810,55
1426,40	25865,85
1428,07	25548,41
1429,74	26054,26
1431,41	25792,12
1433,08	26537,58
1434,74	26465,90
1436,41	26412,65
1438,08	25798,26
1439,74	26142,32
1441,41	26197,62
1443,07	25937,52
1444,74	25820,79
1446,40	26115,70
1448,06	25560,70
1449,72	25847,41
1451,39	26177,14
1453,05	25994,87
1454,71	26412,65
1456,37	26019,44
1458,03	26340,97
1459,69	26046,07
1461,35	27151,97
1463,00	26205,81
1464,66	25990,77
1466,32	25894,52
1467,97	26095,22
1469,63	26152,56
1471,28	26447,47
1472,94	26021,49
1474,59	26173,04
1476,25	26183,28
1477,90	26338,93
1479,55	26072,69
1481,20	25771,64
1482,85	26365,55
1484,50	26054,26
1486,15	25280,13
1487,80	25640,57
1489,45	25460,35
1491,10	25497,21
1492,75	25765,49
1494,40	25556,60
1496,04	25466,49
1497,69	25605,75
1499,33	26691,18
1500,98	26494,57
1502,62	26007,16
1504,27	25613,95
1505,91	25538,17
1507,55	26005,11
1509,19	25708,15
1510,84	25597,56
1512,48	25554,55
1514,12	25861,75
1515,76	26269,30
1517,40	25896,56
1519,04	25833,08
1520,67	26054,26
1522,31	26545,77
1523,95	25728,63
1525,59	26052,21
1527,22	25722,49
1528,86	26082,93
1530,49	24809,09
1532,13	25665,14
1533,76	25667,19
1535,39	25714,30
1537,03	25800,31
1538,66	26234,48
1540,29	25923,19
1541,92	26187,38
1543,55	26089,07
1545,18	26332,78
1546,81	26580,59
1548,44	26697,32
1550,07	26449,52
1551,70	26142,32
1553,32	27027,04
1554,95	26742,38
1556,58	26076,79
1558,20	26207,86
1559,83	26273,39
1561,45	25855,61
1563,07	26357,36
1564,70	25702,01
1566,32	26076,79
1567,94	26310,25
1569,56	26666,60
1571,19	26228,34
1572,81	27344,48
1574,43	26459,76
1576,05	26273,39
1577,66	25888,37
1579,28	25861,75
1580,90	25286,27
1582,52	25966,20
1584,14	26189,42
1585,75	26037,87
1587,37	26218,10
1588,98	26273,39
1590,60	26312,30
1592,21	26349,17
1593,82	26373,74
1595,44	25980,53
1597,05	26650,22
1598,66	26523,24
1600,27	25933,43
1601,88	25921,14
1603,49	22167,21
1605,10	25783,93
1606,71	26365,55
1608,32	26416,75
1609,93	26353,26
1611,54	26748,52
1613,14	26476,14
1614,75	26605,16
1616,36	26297,97
1617,96	26687,08
1619,57	26496,62
1621,17	26371,69
1622,77	26455,66
1624,38	25992,82
1625,98	26785,38
1627,58	26103,41
1629,18	26551,91
1630,78	26924,65
1632,38	26674,79
1633,98	26424,94
1635,58	26826,34
1637,18	26195,57
1638,78	27375,20
1640,38	26869,35
1641,98	26537,58
1643,57	26773,10
1645,17	26670,70
1646,76	25947,76
1648,36	25749,11
1649,95	26308,21
1651,55	26271,34
1653,14	25925,24
1654,73	26222,19
1656,33	26246,77
1657,92	26830,44
1659,51	26052,21
1661,10	26498,67
1662,69	26631,79
1664,28	26216,05
1665,87	26322,54
1667,46	26240,62
1669,05	26351,21
1670,63	26617,45
1672,22	25632,38
1673,81	26003,06
1675,39	25988,72
1676,98	26596,97
1678,56	26003,06
1680,15	25882,23
1681,73	26068,59
1683,31	25908,85
1684,90	25613,95
1686,48	25818,74
1688,06	26191,47
1689,64	26642,03
1691,22	27149,92
1692,80	26766,95
1694,38	26748,52
1695,96	26695,27
1697,54	26218,10
1699,12	26773,10
1700,69	27018,85
1702,27	26177,14
1703,85	26443,37
1705,42	26590,83
1707,00	26230,38
1708,57	25990,77
1710,15	25820,79
1711,72	26035,83
1713,29	25939,57
1714,87	27164,26
1716,44	26529,39
1718,01	27172,45
1719,58	26351,21
1721,15	26527,34
1722,72	26760,81
1724,29	26685,03
1725,86	26127,99
1727,43	26007,16
1729,00	25849,46
1730,56	25695,86
1732,13	26257,01
1733,70	26164,85
1735,26	26535,53
1736,83	26773,10
1738,39	26922,60
1739,96	26580,59
1741,52	26113,65
1743,08	26029,68
1744,65	26877,54
1746,21	26539,63
1747,77	26353,26
1749,33	25855,61
1750,89	26199,66
1752,45	26099,31
1754,01	26615,40
1755,57	26482,28
1757,13	25802,36
1758,69	25984,63
1760,24	26244,72
1761,80	26185,33
1763,36	25992,82
1764,91	26912,36
1766,47	26136,18
1768,02	26693,22
1769,58	26146,42
1771,13	26990,18
1772,68	26304,11
1774,24	26592,87
1775,79	26510,96
1777,34	26465,90
1778,89	26254,96
1780,44	26066,55
1781,99	26070,64
1783,54	26934,88
1785,09	26402,41
1786,64	26830,44
1788,19	26320,49
1789,73	26105,46
1791,28	26533,48
1792,83	26166,90
1794,37	27258,46
1795,92	27246,18
1797,46	26650,22
1799,01	26709,61
1800,55	26906,21
1802,09	26736,23
1803,64	26156,66
1805,18	26570,35
1806,72	26179,18
1808,26	26404,46
1809,80	26162,80
1811,34	26193,52
1812,88	26521,20
1814,42	26406,51
1815,96	26891,88
1817,50	27041,38
1819,04	26500,72
1820,57	26979,94
1822,11	26902,12
1823,65	27111,01
1825,18	26957,41
1826,72	26975,84
1828,25	26642,03
1829,78	26852,97
1831,32	26689,13
1832,85	26168,94
1834,38	26324,59
1835,92	27219,55
1837,45	26183,28
1838,98	27016,80
1840,51	27051,62
1842,04	26869,35
1843,57	26742,38
1845,10	26627,69
1846,62	26951,27
1848,15	26287,73
1849,68	25894,52
1851,21	26429,04
1852,73	26719,85
1854,26	26711,66
1855,78	26789,48
1857,31	26457,71
1858,83	26537,58
1860,36	26685,03
1861,88	25722,49
1863,40	26127,99
1864,92	27127,39
1866,45	26623,59
1867,97	26664,55
1869,49	26938,98
1871,01	26922,60
1872,53	26789,48
1874,05	27020,90
1875,57	26113,65
1877,08	26363,50
1878,60	26310,25
1880,12	26562,15
1881,64	26191,47
1883,15	25695,86
1884,67	26265,20
1886,18	26734,18
1887,70	26803,82
1889,21	27063,91
1890,72	27428,45
1892,24	26785,38
1893,75	26857,06
1895,26	26488,43
1896,77	26670,70
1898,28	26150,51
1899,79	26740,33
1901,30	26031,73
1902,81	26312,30
1904,32	26656,36
1905,83	26041,97
1907,34	26211,95
1908,85	27248,22
1910,35	26375,79
1911,86	26795,62
1913,37	26973,80
1914,87	26578,54
1916,38	25691,77
1917,88	26351,21
1919,39	25800,31
1920,89	25689,72
1922,39	25869,94
1923,89	26185,33
1925,40	26521,20
1926,90	26728,04
1928,40	26623,59
1929,90	26527,34
1931,40	26654,31
1932,90	26656,36
1934,40	26414,70
1935,90	26517,10
1937,39	26515,05
1938,89	26211,95
1940,39	25648,76
1941,89	25923,19
1943,38	25669,24
1944,88	26289,77
1946,37	26615,40
1947,87	26771,05
1949,36	26912,36
1950,85	25642,62
1952,35	25953,91
1953,84	26379,89
1955,33	25878,13
1956,82	25994,87
1958,31	26185,33
1959,80	26189,42
1961,29	25849,46
1962,78	26105,46
1964,27	25822,84
1965,76	26400,37
1967,25	26402,41
1968,74	26510,96
1970,22	26437,23
1971,71	26148,46
1973,20	25720,44
1974,68	26197,62
1976,17	26060,40
1977,65	26748,52
1979,14	26095,22
1980,62	26414,70
1982,10	26033,78
1983,58	25826,93
1985,07	25888,37
1986,55	26007,16
1988,03	26058,35
1989,51	26244,72
1990,99	25996,92
1992,47	26041,97
1993,95	26132,08
1995,43	26324,59
1996,91	26775,14
1998,38	27293,28
1999,86	26048,11
2001,34	26513,00
2002,81	25906,80
2004,29	26248,82
2005,76	26398,32
2007,24	26121,84
2008,71	25511,55
2010,19	25527,93
2011,66	25579,13
2013,13	26621,55
2014,60	26367,60
2016,08	25441,92
2017,55	26170,99
2019,02	25659,00
2020,49	25896,56
2021,96	26033,78
2023,43	26091,12
2024,90	25949,81
2026,36	26553,96
2027,83	26175,09
2029,30	25583,23
2030,77	25728,63
2032,23	25761,40
2033,70	25714,30
2035,16	25912,95
2036,63	26072,69
2038,09	25960,05
2039,56	25937,52
2041,02	26682,98
2042,48	26977,89
2043,95	26207,86
2045,41	26556,01
2046,87	26138,23
2048,33	25949,81
2049,79	25507,45
2051,25	25869,94
2052,71	25187,97
2054,17	25755,26
2055,63	25589,37
2057,09	24989,31
2058,54	25411,20
2060,00	25712,25
2061,46	26295,92
2062,91	26209,90
2064,37	26273,39
2065,82	25841,27
2067,28	26062,45
2068,73	25796,21
2070,19	25468,54
2071,64	26068,59
2073,09	26642,03
2074,54	25996,92
2076,00	25523,83
2077,45	25257,60
2078,90	25933,43
2080,35	26230,38
2081,80	25912,95
2083,25	25857,65
2084,70	25833,08
2086,14	26214,00
2087,59	25970,29
2089,04	25810,55
2090,49	25861,75
2091,93	25364,09
2093,38	25882,23
2094,83	25939,57
2096,27	26052,21
2097,71	25581,18
2099,16	25871,99
2100,60	25890,42
2102,05	25517,69
2103,49	25763,45
2104,93	25955,96
2106,37	25890,42
2107,81	25525,88
2109,25	25116,29
2110,69	25640,57
2112,13	25788,02
2113,57	25529,98
2115,01	25855,61
2116,45	26005,11
2117,89	25919,09
2119,33	26494,57
2120,76	26095,22
2122,20	26031,73
2123,63	25398,91
2125,07	25980,53
2126,51	25912,95
2127,94	25194,11
2129,37	25378,43
2130,81	25472,64
2132,24	25468,54
2133,67	25507,45
2135,11	25992,82
2136,54	25611,90
2137,97	25656,95
2139,40	25128,58
2140,83	24782,47
2142,26	25419,39
2143,69	25861,75
2145,12	26609,26
2146,55	25996,92
2147,97	25382,52
2149,40	25378,43
2150,83	25192,06
2152,25	25964,15
2153,68	24852,10
2155,11	25327,23
2156,53	24923,78
2157,96	25374,33
2159,38	25587,32
2160,80	24745,61
2162,23	25450,11
2163,65	25372,28
2165,07	25243,26
2166,49	25577,08
2167,91	24931,97
2169,33	24970,88
2170,75	24747,65
2172,17	26336,88
2173,59	25607,80
2175,01	25570,94
2176,43	25562,75
2177,85	25775,73
2179,27	24958,60
2180,68	25392,76
2182,10	25945,72
2183,52	25284,22
2184,93	25024,13
2186,35	24911,49
2187,76	25984,63
2189,18	25810,55
2190,59	25620,09
2192,00	25126,53
2193,42	24923,78
2194,83	24899,20
2196,24	25290,37
2197,65	25585,27
2199,06	25527,93
2200,47	25411,20
2201,88	25554,55
2203,29	25091,71
2204,70	25026,18
2206,11	24821,38
2207,52	25441,92
2208,93	25937,52
2210,33	25099,90
2211,74	26082,93
2213,15	25538,17
2214,55	25304,70
2215,96	25480,83
2217,36	25210,50
2218,77	25325,18
2220,17	25042,56
2221,57	25034,37
2222,98	24909,44
2224,38	25212,54
2225,78	25665,14
2227,18	25757,30
2228,58	25706,10
2229,99	25501,31
2231,39	26332,78
2232,79	25771,64
2234,18	26185,33
2235,58	25898,61
2236,98	26158,70
2238,38	26418,80
2239,78	26205,81
2241,17	27362,91
2242,57	27823,70
2243,97	28466,77
2245,36	30529,07
2246,76	31542,81
2248,15	33523,20
2249,55	35192,30
2250,94	37244,36
2252,33	37850,56
2253,73	38391,22
2255,12	38075,84
2256,51	37443,01
2257,90	36519,38
2259,29	35923,42
2260,68	34186,74
2262,07	32269,84
2263,46	31344,16
2264,85	28810,82
2266,24	28358,22
2267,63	27852,38
2269,02	27792,98
2270,40	26570,35
2271,79	26510,96
2273,18	25341,57
2274,56	25634,42
2275,95	26087,03
2277,33	25714,30
2278,72	26015,35
2280,10	26113,65
2281,49	25880,18
2282,87	25251,45
2284,25	25945,72
2285,63	25120,38
2287,02	25745,02
2288,40	25165,44
2289,78	25343,61
2291,16	25353,85
2292,54	25054,85
2293,92	25011,84
2295,30	25175,68
2296,68	24204,94
2298,05	24974,98
2299,43	25439,87
2300,81	25329,28
2302,19	25276,03
2303,56	25403,00
2304,94	25409,15
2306,31	25204,35
2307,69	24997,51
2309,06	24764,04
2310,44	25034,37
2311,81	25011,84
2313,19	24706,70
2314,56	24860,29
2315,93	24534,67
2317,30	25429,63
2318,67	24921,73
2320,04	25386,62
2321,41	24886,92
2322,78	23916,18
2324,15	24149,65
2325,52	24231,57
2326,89	24565,39
2328,26	24346,25
2329,63	24770,18
2331,00	24227,47
2332,36	24438,41
2333,73	24127,12
2335,09	24358,54
2336,46	25149,06
2337,83	24333,96
2339,19	24792,71
2340,55	24708,74
2341,92	24307,34
2343,28	24047,25
2344,64	24628,87
2346,01	23930,51
2347,37	24983,17
2348,73	25056,90
2350,09	24483,47
2351,45	24479,37
2352,81	24694,41
2354,17	24653,45
2355,53	24354,44
2356,89	23961,23
2358,25	24125,07
2359,61	24325,77
2360,96	24350,35
2362,32	24598,15
2363,68	24917,64
2365,03	24401,55
2366,39	24569,48
2367,74	24260,24
2369,10	24364,68
2370,45	24088,21
2371,81	24497,80
2373,16	24493,71
2374,51	24487,56
2375,86	24327,82
2377,22	24450,70
2378,57	24082,06
2379,92	24311,44
2381,27	24581,77
2382,62	24729,22
2383,97	24577,67
2385,32	24528,52
2386,67	24370,83
2388,02	24428,17
2389,37	24501,90
2390,71	24497,80
2392,06	24250,00
2393,41	24340,11
2394,75	24704,65
2396,10	24862,34
2397,44	24245,90
2398,79	25003,65
2400,13	24565,39
2401,48	24106,64
2402,82	24135,31
2404,17	24043,15
2405,51	24440,46
2406,85	24039,06
2408,19	24274,57
2409,53	24075,92
2410,87	24149,65
2412,22	24127,12
2413,56	23621,27
2414,89	24077,97
2416,23	24481,42
2417,57	24155,79
2418,91	24340,11
2420,25	24323,72
2421,59	23725,72
2422,92	23985,81
2424,26	24252,05
2425,60	23934,61
2426,93	24127,12
2428,27	23641,75
2429,60	23965,33
2430,94	23776,92
2432,27	23606,94
2433,60	24399,50
2434,94	24002,19
2436,27	24493,71
2437,60	24020,63
2438,93	24721,03
2440,27	24573,58
2441,60	24094,35
2442,93	23871,12
2444,26	24288,91
2445,59	23770,77
2446,92	23563,93
2448,24	23455,39
2449,57	23565,98
2450,90	23242,40
2452,23	23336,60
2453,55	23834,26
2454,88	23791,25
2456,21	24311,44
2457,53	24239,76
2458,86	23740,05
2460,18	24497,80
2461,51	24299,15
2462,83	23867,03
2464,15	24336,01
2465,48	24407,69
2466,80	24743,56
2468,12	24387,21
2469,44	24329,87
2470,76	23994,00
2472,09	24194,70
2473,41	23860,88
2474,73	24118,93
2476,05	23795,35
2477,36	23889,56
2478,68	23629,46
2480,00	23842,45
2481,32	23549,59
2482,64	24338,06
2483,95	24286,86
2485,27	24114,83
2486,59	23686,81
2487,90	24098,45
2489,22	24008,34
2490,53	24030,87
2491,85	24188,56
2493,16	23735,96
2494,47	24008,34
2495,79	24434,32
2497,10	24206,99
2498,41	23846,55
2499,72	24444,56
2501,03	23678,61
2502,35	23676,57
2503,66	23555,74
2504,97	23238,30
2506,28	23504,54
2507,59	23703,19
2508,89	23955,09
2510,20	23707,29
2511,51	23283,36
2512,82	23508,63
2514,12	24544,91
2515,43	24039,06
2516,74	24020,63
2518,04	23905,94
2519,35	23246,49
2520,65	22875,81
2521,96	23017,12
2523,26	23723,67
2524,57	23107,23
2525,87	23023,26
2527,17	23391,90
2528,47	23621,27
2529,78	22824,61
2531,08	23723,67
2532,38	24563,34
2533,68	23717,53
2534,98	23299,74
2536,28	23953,04
2537,58	23297,69
2538,88	24315,53
2540,18	23322,27
2541,47	23432,86
2542,77	22879,91
2544,07	23393,95
2545,37	23469,72
2546,66	23066,27
2547,96	23127,71
2549,25	23584,41
2550,55	23445,15
2551,84	22666,92
2553,14	23217,82
2554,43	23596,70
2555,72	23258,78
2557,02	23109,28
2558,31	23639,70
2559,60	23830,16
2560,89	23166,62
2562,18	23172,77
2563,48	22771,36
2564,77	22662,82
2566,06	23443,10
2567,35	23502,49
2568,63	23213,73
2569,92	23154,33
2571,21	22886,05
2572,50	23152,29
2573,79	23027,36
2575,07	23217,82
2576,36	23953,04
2577,65	24141,46
2578,93	23512,73
2580,22	23852,69
2581,50	23287,45
2582,79	23047,84
2584,07	22963,87
2585,36	23025,31
2586,64	23142,05
2587,92	22800,04
2589,20	23099,04
2590,49	23514,78
2591,77	22455,98
2593,05	22707,88
2594,33	22433,45
2595,61	23226,01
2596,89	22916,77
2598,17	23576,22
2599,45	24395,40
2600,73	23287,45
2602,00	23148,19
2603,28	23082,66
2604,56	23252,64
2605,84	23283,36
2607,11	23674,52
2608,39	22871,71
2609,67	22857,38
2610,94	22660,77
2612,22	22685,35
2613,49	22765,22
2614,76	22437,55
2616,04	22650,53
2617,31	22458,03
2618,58	23092,90
2619,86	22685,35
2621,13	23207,58
2622,40	22781,60
2623,67	23092,90
2624,94	23613,08
2626,21	23209,63
2627,48	22515,37
2628,75	22675,11
2630,02	22177,45
2631,29	22781,60
2632,56	22408,87
2633,82	22183,60
2635,09	22935,20
2636,36	23312,03
2637,63	23285,40
2638,89	22970,02
2640,16	22472,36
2641,42	22847,14
2642,69	23254,69
2643,95	22904,48
2645,22	22890,15
2646,48	22372,01
2647,74	22826,66
2649,01	22236,84
2650,27	22462,12
2651,53	22795,94
2652,79	22951,59
2654,05	22374,06
2655,31	22746,79
2656,57	22615,72
2657,83	22255,28
2659,09	22939,30
2660,35	22206,13
2661,61	22658,73
2662,87	22582,95
2664,13	23410,33
2665,38	23092,90
2666,64	23209,63
2667,90	23189,15
2669,15	23402,14
2670,41	22505,13
2671,67	22795,94
2672,92	23303,84
2674,17	23115,42
2675,43	22398,63
2676,68	22578,86
2677,94	21935,79
2679,19	22992,55
2680,44	22959,78
2681,69	22654,63
2682,95	22288,04
2684,20	22193,84
2685,45	22615,72
2686,70	22824,61
2687,95	22714,02
2689,20	23105,18
2690,45	22711,97
2691,70	22877,86
2692,94	22566,57
2694,19	22439,59
2695,44	22566,57
2696,69	22165,17
2697,93	22097,58
2699,18	22472,36
2700,43	22544,04
2701,67	22498,98
2702,92	22789,80
2704,16	22427,31
2705,41	22806,18
2706,65	22859,43
2707,89	22857,38
2709,14	22900,39
2710,38	22341,29
2711,62	22845,09
2712,86	21913,27
2714,11	21911,22
2715,35	22083,25
2716,59	22367,91
2717,83	21937,84
2719,07	22593,19
2720,31	21907,12
2721,55	22324,91
2722,78	22834,85
2724,02	22222,51
2725,26	21972,66
2726,50	21749,43
2727,73	21952,18
2728,97	21808,82
2730,21	21780,15
2731,44	21720,76
2732,68	22079,15
2733,91	22066,86
2735,15	22195,89
2736,38	22073,01
2737,62	22023,86
2738,85	21698,23
2740,08	22064,82
2741,32	21931,70
2742,55	22181,55
2743,78	22195,89
2745,01	22220,46
2746,24	22687,40
2747,47	21620,41
2748,70	21747,38
2749,93	21810,87
2751,16	22269,61
2752,39	22175,41
2753,62	22412,97
2754,85	22021,81
2756,08	21569,21
2757,30	21497,53
2758,53	21593,78
2759,76	21747,38
2760,98	21604,02
2762,21	21933,75
2763,43	22052,53
2764,66	21984,94
2765,88	22232,75
2767,11	21601,97
2768,33	21239,48
2769,55	21769,91
2770,78	21989,04
2772,00	21640,89
2773,22	21376,70
2774,44	21333,69
2775,67	21606,07
2776,89	21931,70
2778,11	21204,67
2779,33	21337,79
2780,55	21790,39
2781,77	22001,33
2782,99	21644,98
2784,20	21210,81
2785,42	21941,94
2786,64	21192,38
2787,86	21348,03
2789,07	20870,85
2790,29	20772,55
2791,51	21151,42
2792,72	21409,47
2793,94	21231,29
2795,15	21540,54
2796,37	21276,35
2797,58	21284,54
2798,80	21475,00
2800,01	21671,61
2801,22	21663,41
2802,44	21618,36
2803,65	21180,09
2804,86	20944,58
2806,07	21204,67
2807,28	21163,71
2808,49	20844,23
2809,70	21030,59
2810,91	20659,91
2812,12	21567,16
2813,33	20993,73
2814,54	21747,38
2815,75	21006,02
2816,96	20745,92
2818,16	20922,05
2819,37	21249,72
2820,58	21116,61
2821,78	21460,66
2822,99	20567,75
2824,20	20240,08
2825,40	21143,23
2826,61	21014,21
2827,81	20893,38
2829,01	21085,89
2830,22	21182,14
2831,42	20950,72
2832,62	20592,33
2833,83	20856,51
2835,03	20915,90
2836,23	20887,23
2837,43	21360,31
2838,63	21274,30
2839,83	21337,79
2841,03	20692,68
2842,23	20848,32
2843,43	20911,81
2844,63	20502,22
2845,83	20577,99
2847,03	20727,49
2848,22	20192,97
2849,42	20326,09
2850,62	20854,47
2851,81	21155,52
2853,01	21130,94
2854,21	20948,67
2855,40	20608,71
2856,60	20592,33
2857,79	20596,42
2858,99	20776,64
2860,18	20252,36
2861,37	20532,93
2862,57	20866,75
2863,76	20799,17
2864,95	20430,54
2866,14	20016,85
2867,33	20719,30
2868,52	20586,18
2869,72	21051,07
2870,91	20385,48
2872,10	20870,85
2873,28	20213,45
2874,47	20575,94
2875,66	20481,74
2876,85	20956,86
2878,04	21042,88
2879,23	20455,11
2880,41	19990,22
2881,60	20274,89
2882,79	20342,47
2883,97	20780,74
2885,16	20668,10
2886,34	20250,32
2887,53	20174,54
2888,71	20401,86
2889,90	20139,72
2891,08	20164,30
2892,26	20129,48
2893,45	20453,06
2894,63	20567,75
2895,81	20555,46
2896,99	19779,28
2898,17	19900,11
2899,36	19873,49
2900,54	19773,14
2901,72	19543,77
2902,90	19609,30
2904,08	19939,02
2905,26	20475,59
2906,43	19822,29
2907,61	20471,50
2908,79	20758,21
2909,97	20432,58
2911,14	20256,46
2912,32	20088,53
2913,50	19918,54
2914,67	19281,63
2915,85	20020,94
2917,02	19955,41
2918,20	19918,54
2919,37	19693,27
2920,55	19738,32
2921,72	19150,56
2922,90	20025,04
2924,07	20076,24
2925,24	19996,37
2926,41	19779,28
2927,58	19865,30
2928,76	19922,64
2929,93	19654,36
2931,10	20278,99
2932,27	19615,44
2933,44	19922,64
2934,61	20203,21
2935,78	19693,27
2936,95	19611,35
2938,11	20006,61
2939,28	19838,67
2940,45	19551,96
2941,62	19668,69
2942,78	20053,71
2943,95	19384,02
2945,12	19476,18
2946,28	20092,62
2947,45	19490,52
2948,61	19777,23
2949,78	19545,81
2950,94	19570,39
2952,10	20264,65
2953,27	20004,56
2954,43	19597,01
2955,59	19826,39
2956,76	19687,12
2957,92	19373,78
2959,08	20072,14
2960,24	19904,21
2961,40	19392,22
2962,56	19461,85
2963,72	20029,13
2964,88	20154,06
2966,04	20111,05
2967,20	19252,95
2968,36	19197,66
2969,52	19037,92
2970,67	19193,56
2971,83	19072,73
2972,99	19390,17
2974,14	18970,33
2975,30	19506,90
2976,46	19211,99
2977,61	19431,13
2978,77	19400,41
2979,92	19066,59
2981,08	19191,52
2982,23	19175,13
2983,38	19320,54
2984,54	19535,57
2985,69	19521,24
2986,84	19455,70
2987,99	19453,66
2989,15	18794,21
2990,30	18654,95
2991,45	18130,67
2992,60	18671,33
2993,75	19441,37
2994,90	19007,20
2996,05	19252,95
2997,20	19312,35
2998,35	18988,77
2999,49	18636,52
3000,64	18724,58
3001,79	18861,79
3002,94	18865,89
3004,08	18740,96
3005,23	18867,94
3006,38	18972,38
3007,52	18779,87
3008,67	19068,64
3009,81	18607,84
3010,96	18282,22
3012,10	18321,13
3013,25	18605,80
3014,39	18482,92
3015,53	18267,88
3016,67	18714,34
3017,82	18640,61
3018,96	18861,79
3020,10	18818,78
3021,24	18814,69
3022,38	19799,76
3023,52	19633,88
3024,66	19099,36
3025,80	18394,86
3026,94	18642,66
3028,08	18210,54
3029,22	18521,83
3030,36	18314,98
3031,50	18431,72
3032,63	18675,43
3033,77	18282,22
3034,91	18489,06
3036,04	18591,46
3037,18	18702,05
3038,32	18466,53
3039,45	18302,70
3040,59	18462,44
3041,72	18798,31
3042,86	18751,20
3043,99	18796,26
3045,12	18605,80
3046,26	18773,73
3047,39	18984,67
3048,52	18730,72
3049,65	18542,31
3050,78	17975,02
3051,92	18331,37
3053,05	18564,84
3054,18	18773,73
3055,31	18802,40
3056,44	18743,01
3057,57	18697,95
3058,70	18661,09
3059,82	18300,65
3060,95	18034,41
3062,08	17948,40
3063,21	17782,51
3064,34	18106,09
3065,46	17964,78
3066,59	18013,93
3067,71	18702,05
3068,84	18824,93
3069,97	18317,03
3071,09	18282,22
3072,22	18482,92
3073,34	18376,42
3074,46	18493,16
3075,59	17852,14
3076,71	18114,28
3077,83	18114,28
3078,96	18149,10
3080,08	18220,78
3081,20	17915,63
3082,32	17755,89
3083,44	18056,94
3084,56	18112,24
3085,68	17889,01
3086,80	18312,94
3087,92	18396,90
3089,04	18460,39
3090,16	17819,38
3091,28	18153,20
3092,40	17764,08
3093,51	18298,60
3094,63	18038,51
3095,75	18175,72
3096,87	17837,81
3097,98	17493,75
3099,10	17446,65
3100,21	17508,08
3101,33	17962,73
3102,44	17846,00
3103,56	17684,21
3104,67	18394,86
3105,79	17991,41
3106,90	17899,25
3108,01	17673,97
3109,12	17579,76
3110,24	18444,01
3111,35	17708,79
3112,46	17520,37
3113,57	18099,95
3114,68	17430,26
3115,79	17673,97
3116,90	18077,42
3118,01	18065,13
3119,12	17819,38
3120,23	17886,96
3121,34	18235,11
3122,45	17927,92
3123,56	18024,17
3124,66	17739,51
3125,77	17751,79
3126,88	17622,77
3127,98	17831,66
3129,09	17782,51
3130,20	17907,44
3131,30	17583,86
3132,41	17557,24
3133,51	17813,23
3134,61	17856,24
3135,72	18177,77
3136,82	17571,57
3137,93	17370,87
3139,03	17397,49
3140,13	17671,92
3141,23	17823,47
3142,33	17592,05
3143,44	17764,08
3144,54	17915,63
3145,64	17751,79
3146,74	17960,69
3147,84	17946,35
3148,94	17538,80
3150,04	16969,47
3151,14	17530,61
3152,23	17886,96
3153,33	17166,07
3154,43	17262,33
3155,53	17305,34
3156,63	17987,31
3157,72	17983,21
3158,82	17848,05
3159,91	17508,08
3161,01	17567,48
3162,11	17585,91
3163,20	17577,72
3164,30	17680,11
3165,39	17802,99
3166,48	17940,21
3167,58	17467,13
3168,67	17532,66
3169,76	17223,42
3170,86	17137,40
3171,95	17219,32
3173,04	17598,20
3174,13	17385,21
3175,22	17381,11
3176,31	17516,28
3177,40	17637,11
3178,49	17282,81
3179,58	17454,84
3180,67	17618,68
3181,76	17438,45
3182,85	17995,50
3183,94	17624,82
3185,03	17327,86
3186,11	17538,80
3187,20	17442,55
3188,29	16985,85
3189,37	17016,57
3190,46	17098,49
3191,55	16690,95
3192,63	17186,55
3193,72	16649,99
3194,80	16940,80
3195,89	17235,70
3196,97	17262,33
3198,05	17278,71
3199,14	17053,44
3200,22	17096,44
3201,30	17188,60
3202,38	17532,66
3203,47	17022,72
3204,55	17217,27
3205,63	16369,41
3206,71	17008,38
3207,79	16789,25
3208,87	17256,18
3209,95	17272,57
3211,03	17573,62
3212,11	17366,78
3213,19	16746,24
3214,27	17188,60
3215,34	17379,06
3216,42	17250,04
3217,50	16979,71
3218,58	17028,86
3219,65	17065,72
3220,73	16875,26
3221,80	17127,16
3222,88	17131,26
3223,96	16758,53
3225,03	16891,65
3226,10	17215,23
3227,18	16852,73
3228,25	16961,28
3229,33	17522,42
3230,40	17250,04
3231,47	17129,21
3232,54	17022,72
3233,62	17237,75
3234,69	17303,29
3235,76	17354,49
3236,83	17309,43
3237,90	17510,13
3238,97	17342,20
3240,04	16484,10
3241,11	16705,28
3242,18	16836,35
3243,25	16885,50
3244,32	16537,35
3245,39	16467,72
3246,45	16699,14
3247,52	16512,77
3248,59	16811,78
3249,66	16895,74
3250,72	17256,18
3251,79	17391,35
3252,85	17088,25
3253,92	16983,80
3254,98	17090,30
3256,05	17227,51
3257,11	17237,75
3258,18	16979,71
3259,24	17008,38
3260,30	16776,96
3261,37	16701,19
3262,43	16553,73
3263,49	16756,48
3264,55	16490,24
3265,62	17121,02
3266,68	16715,52
3267,74	17241,85
3268,80	17250,04
3269,86	16568,07
3270,92	16606,98
3271,98	17018,62
3273,04	16684,80
3274,10	16041,74
3275,16	16840,45
3276,21	16480,00
3277,27	16428,81
3278,33	16467,72
3279,39	16230,15
3280,44	16695,04
3281,50	16426,76
3282,56	16121,61
3283,61	16152,33
3284,67	16137,99
3285,72	16299,78
3286,78	16623,36
3287,83	16727,81
3288,88	16629,51
3289,94	16860,93
3290,99	16692,99
3292,04	16346,89
3293,10	16129,80
3294,15	16375,56
3295,20	16975,61
3296,25	16617,22
3297,30	16619,27
3298,36	15990,54
3299,41	16213,77
3300,46	15673,10
3301,51	16056,08
3302,56	16084,75
3303,61	16424,71
3304,65	16461,57
3305,70	16121,61
3306,75	16248,58
3307,80	16230,15
3308,85	16068,36
3309,89	15961,87
3310,94	16459,52
3311,99	16422,66
3313,03	16336,65
3314,08	16273,16
3315,12	15904,53
3316,17	15818,51
3317,21	16185,10
3318,26	16314,12
3319,30	16267,02
3320,35	16209,67
3321,39	16584,45
3322,43	16654,08
3323,48	16119,56
3324,52	16609,03
3325,56	15984,40
3326,60	16211,72
3327,64	16330,50
3328,68	16082,70
3329,73	16013,07
3330,77	16275,21
3331,81	15826,70
3332,85	16099,08
3333,88	16256,78
3334,92	16160,52
3335,96	16150,28
3337,00	15935,24
3338,04	16269,06
3339,08	16133,90
3340,11	15646,48
3341,15	15580,95
3342,19	15765,26
3343,22	16094,99
3344,26	16330,50
3345,30	16488,20
3346,33	16160,52
3347,37	16125,71
3348,40	15623,95
3349,43	15384,34
3350,47	15591,19
3351,50	15855,37
3352,54	15689,49
3353,57	16017,16
3354,60	15828,75
3355,63	16047,88
3356,67	15705,87
3357,70	15875,85
3358,73	15370,01
3359,76	15775,50
3360,79	15849,23
3361,82	15763,22
3362,85	15781,65
3363,88	15382,29
3364,91	15261,46
3365,94	15468,31
3366,97	15075,10
3367,99	15546,13
3369,02	15750,93
3370,05	15736,59
3371,08	15763,22
3372,10	15392,53
3373,13	15230,74
3374,16	15521,56
3375,18	14987,04
3376,21	14704,42
3377,23	15130,39
3378,26	15095,58
3379,28	15032,09
3380,31	15339,29
3381,33	15718,16
3382,35	15277,85
3383,38	15025,95
3384,40	15404,82
3385,42	15216,41
3386,45	15433,49
3387,47	15126,30
3388,49	15343,38
3389,51	15195,93
3390,53	15185,69
3391,55	14679,84
3392,57	15300,37
3393,59	15243,03
3394,61	15099,67
3395,63	15589,14
3396,65	15230,74
3397,67	14888,73
3398,69	14927,64
3399,70	14636,83
3400,72	14866,21
3401,74	14901,02
3402,76	14792,48
3403,77	15075,10
3404,79	14991,13
3405,80	14853,92
3406,82	14937,88
3407,83	14522,15
3408,85	14982,94
3409,86	15179,54
3410,88	15152,92
3411,89	14901,02
3412,91	14860,06
3413,92	15042,33
3414,93	14659,36
3415,94	14815,01
3416,96	14647,07
3417,97	14980,89
3418,98	14528,29
3419,99	15120,15
3421,00	14534,43
3422,01	14647,07
3423,02	14251,81
3424,03	14276,39
3425,04	14708,51
3426,05	14616,35
3427,06	14968,60
3428,07	14772,00
3429,08	15140,63
3430,09	14958,36
3431,09	14886,68
3432,10	14833,44
3433,11	15111,96
3434,12	14974,75
3435,12	14546,72
3436,13	14792,48
3437,13	14532,39
3438,14	14391,08
3439,14	14511,91
3440,15	14389,03
3441,15	14321,45
3442,16	14796,57
3443,16	14485,28
3444,16	14559,01
3445,17	14556,96
3446,17	14124,84
3447,17	14245,67
3448,17	14466,85
3449,18	14569,25
3450,18	14862,11
3451,18	14591,78
3452,18	14841,63
3453,18	15015,71
3454,18	14386,98
3455,18	14520,10
3456,18	14792,48
3457,18	14331,69
3458,18	14716,70
3459,17	14288,68
3460,17	14432,04
3461,17	14591,78
3462,17	14784,29
3463,17	14460,71
3464,16	14540,58
3465,16	14374,69
3466,15	14452,52
3467,15	14556,96
3468,15	14323,49
3469,14	14255,91
3470,14	14477,09
3471,13	14499,62
3472,13	14249,77
3473,12	14534,43
3474,11	14499,62
3475,11	14583,59
3476,10	14487,33
3477,09	14049,07
3478,08	14049,07
3479,08	13985,58
3480,07	13797,17
3481,06	14364,45
3482,05	14313,25
3483,04	14106,41
3484,03	14262,05
3485,02	14063,40
3486,01	14360,36
3487,00	14542,63
3487,99	14458,66
3488,98	14454,56
3489,97	14329,64
3490,95	13936,43
3491,94	13999,91
3492,93	14274,34
3493,92	14798,62
3494,90	14202,66
3495,89	13731,63
3496,88	13657,90
3497,86	13823,79
3498,85	13836,08
3499,83	14067,50
3500,82	14135,08
3501,80	14055,21
3502,79	14280,49
3503,77	14081,83
3504,75	14378,79
3505,74	14135,08
3506,72	14313,25
3507,70	14249,77
3508,68	14167,85
3509,67	14198,57
3510,65	14212,90
3511,63	13907,76
3512,61	13823,79
3513,59	14006,06
3514,57	14296,87
3515,55	14546,72
3516,53	14745,38
3517,51	14257,96
3518,49	14327,59
3519,47	14217,00
3520,45	14004,01
3521,42	14464,80
3522,40	14176,04
3523,38	13944,62
3524,36	13928,24
3525,33	14036,78
3526,31	13999,91
3527,29	13858,60
3528,26	14231,33
3529,24	13799,21
3530,21	13883,18
3531,19	13985,58
3532,16	14173,99
3533,14	14061,35
3534,11	14149,42
3535,08	14194,47
3536,06	14124,84
3537,03	13913,90
3538,00	14153,51
3538,98	14038,83
3539,95	14032,68
3540,92	13811,50
3541,89	13805,36
3542,86	14118,70
3543,83	13715,25
3544,80	13860,65
3545,77	13602,61
3546,74	13537,07
3547,71	14075,69
3548,68	13973,29
3549,65	14423,84
3550,62	14073,64
3551,59	14642,98
3552,56	14266,15
3553,52	14284,58
3554,49	14178,09
3555,46	14305,06
3556,42	13907,76
3557,39	14016,30
3558,36	13954,86
3559,32	13836,08
3560,29	14214,95
3561,25	14245,67
3562,22	13729,58
3563,18	13772,59
3564,15	13612,85
3565,11	13651,76
3566,07	13856,56
3567,04	13739,82
3568,00	13580,08
3568,96	13733,68
3569,92	13827,88
3570,89	13752,11
3571,85	14231,33
3572,81	13944,62
3573,77	14006,06
3574,73	13911,85
3575,69	14100,26
3576,65	13924,14
3577,61	13834,03
3578,57	13928,24
3579,53	13569,84
3580,49	13938,48
3581,45	14133,03
3582,40	13838,12
3583,36	13641,52
3584,32	14044,97
3585,28	13797,17
3586,23	13918,00
3587,19	13866,80
3588,15	14083,88
3589,10	13883,18
3590,06	14030,63
3591,01	13508,40
3591,97	13598,51
3592,92	13635,38
3593,88	13702,96
3594,83	13719,34
3595,78	13616,94
3596,74	13377,33
3597,69	13526,83
3598,64	13930,28
3599,60	13645,62
3600,55	13551,41
3601,50	13227,83
3602,45	13608,75
3603,40	13492,02
3604,35	13739,82
3605,31	13729,58
3606,26	13823,79
3607,21	13909,80
3608,16	13608,75
3609,10	13762,35
3610,05	13553,46
3611,00	13166,39
3611,95	13414,20
3612,90	13514,55
3613,85	13655,86
3614,79	13815,60
3615,74	13539,12
3616,69	13401,91
3617,63	13481,78
3618,58	13498,16
3619,53	13727,53
3620,47	13598,51
3621,42	13758,25
3622,36	13727,53
3623,31	13569,84
3624,25	13305,65
3625,20	13487,92
3626,14	13367,09
3627,08	13143,86
3628,03	13307,70
3628,97	13348,66
3629,91	13537,07
3630,85	13338,42
3631,80	13580,08
3632,74	13844,27
3633,68	13614,90
3634,62	13369,14
3635,56	13215,54
3636,50	13274,93
3637,44	13526,83
3638,38	13403,96
3639,32	13256,50
3640,26	13487,92
3641,20	13590,32
3642,14	13418,29
3643,08	13326,13
3644,01	13553,46
3644,95	13154,10
3645,89	13535,03
3646,83	13145,91
3647,76	13444,91
3648,70	13453,11
3649,63	13426,48
3650,57	13379,38
3651,51	13659,95
3652,44	13115,19
3653,38	13348,66
3654,31	13483,83
3655,24	13319,99
3656,18	12900,16
3657,11	13389,62
3658,05	12943,16
3658,98	13045,56
3659,91	13088,57
3660,84	12846,91
3661,78	12908,35
3662,71	12930,87
3663,64	12781,37
3664,57	12803,90
3665,50	12840,76
3666,43	12885,82
3667,36	12687,17
3668,29	12635,97
3669,22	12601,15
3670,15	12824,38
3671,08	12902,20
3672,01	12439,36
3672,94	12762,94
3673,86	12638,02
3674,79	12599,10
3675,72	12693,31
3676,65	13002,55
3677,57	13123,38
3678,50	12988,22
3679,43	12898,11
3680,35	12566,34
3681,28	12531,52
3682,20	12472,13
3683,13	13031,23
3684,05	12750,65
3684,98	12955,45
3685,90	12457,79
3686,83	12799,80
3687,75	13082,42
3688,67	13025,08
3689,60	12918,59
3690,52	12588,86
3691,44	12959,55
3692,36	12812,09
3693,28	12648,26
3694,21	12615,49
3695,13	13133,62
3696,05	13451,06
3696,97	13043,51
3697,89	13322,04
3698,81	12773,18
3699,73	12721,98
3700,65	12361,54
3701,57	12859,20
3702,48	12595,01
3703,40	12908,35
3704,32	12894,01
3705,24	13092,66
3706,16	13039,42
3707,07	12898,11
3707,99	12916,54
3708,91	12711,74
3709,82	12799,80
3710,74	12511,04
3711,66	12824,38
3712,57	12791,61
3713,49	12703,55
3714,40	12521,28
3715,31	12257,09
3716,23	12666,69
3717,14	12691,26
3718,06	12797,76
3718,97	12635,97
3719,88	12439,36
3720,80	12463,94
3721,71	10889,05
3722,62	12461,89
3723,53	12490,56
3724,44	12541,76
3725,35	12261,19
3726,26	12412,74
3727,18	12400,45
3728,09	12375,88
3729,00	12531,52
3729,91	12609,34
3730,81	12638,02
3731,72	12390,21
3732,63	11908,94
3733,54	12523,33
3734,45	12676,93
3735,36	12756,80
3736,26	12521,28
3737,17	12629,82
3738,08	12752,70
3738,99	12404,55
3739,89	12209,99
3740,80	12599,10
3741,70	12265,28
3742,61	12482,37
3743,51	12379,97
3744,42	12347,20
3745,32	12703,55
3746,23	12431,17
3747,13	12253,00
3748,04	12519,23
3748,94	12304,20
3749,84	12492,61
3750,74	11968,33
3751,65	12371,78
3752,55	12289,86
3753,45	12410,69
3754,35	12205,89
3755,25	12437,31
3756,16	12255,04
3757,06	12226,37
3757,96	11951,95
3758,86	12136,26
3759,76	12113,74
3760,66	12310,34
3761,55	12052,30
3762,45	11910,99
3763,35	12046,15
3764,25	11788,11
3765,15	12144,45
3766,05	12189,51
3766,94	11831,12
3767,84	11908,94
3768,74	11970,38
3769,63	11827,02
3770,53	12064,58
3771,43	11933,51
3772,32	11958,09
3773,22	12037,96
3774,11	11751,24
3775,01	11855,69
3775,90	11775,82
3776,80	11687,76
3777,69	11695,95
3778,58	11964,23
3779,48	11714,38
3780,37	11915,08
3781,26	12087,11
3782,16	11851,60
3783,05	11917,13
3783,94	11984,71
3784,83	11968,33
3785,72	11953,99
3786,61	12279,62
3787,50	11935,56
3788,39	11665,23
3789,28	11908,94
3790,17	11777,87
3791,06	11902,79
3791,95	11661,13
3792,84	11702,09
3793,73	11528,02
3794,62	11698,00
3795,51	11730,76
3796,39	11837,26
3797,28	11747,15
3798,17	11700,05
3799,06	11769,68
3799,94	11687,76
3800,83	11630,41
3801,71	11599,70
3802,60	11274,07
3803,48	11329,36
3804,37	11472,72
3805,25	11579,22
3806,14	11708,24
3807,02	11693,90
3807,91	11722,57
3808,79	11751,24
3809,67	11605,84
3810,56	11833,16
3811,44	11863,88
3812,32	11820,88
3813,20	11833,16
3814,09	11503,44
3814,97	11257,68
3815,85	11417,43
3816,73	11478,86
3817,61	11712,33
3818,49	12011,34
3819,37	11880,27
3820,25	11843,40
3821,13	11546,45
3822,01	11212,63
3822,89	11368,27
3823,77	11253,59
3824,65	11265,88
3825,52	11216,72
3826,40	11609,93
3827,28	11736,91
3828,16	11358,03
3829,03	11433,81
3829,91	11538,26
3830,79	11126,61
3831,66	11407,19
3832,54	11577,17
3833,41	11325,27
3834,29	11577,17
3835,16	11183,96
3836,04	11024,22
3836,91	11128,66
3837,79	11214,68
3838,66	10958,68
3839,53	11204,44
3840,41	11192,15
3841,28	11171,67
3842,15	11050,84
3843,02	10925,91
3843,90	11194,20
3844,77	11134,81
3845,64	11304,79
3846,51	11325,27
3847,38	11495,25
3848,25	11458,39
3849,12	11165,53
3849,99	10995,54
3850,86	11235,16
3851,73	10934,11
3852,60	10753,88
3853,47	10977,11
3854,34	11099,99
3855,21	11067,22
3856,07	11056,98
3856,94	10901,34
3857,81	10932,06
3858,68	10751,84
3859,54	10905,43
3860,41	10979,16
3861,28	10993,50
3862,14	10510,18
3863,01	10786,65
3863,87	10493,79
3864,74	10348,39
3865,60	10377,06
3866,47	10594,14
3867,33	10553,18
3868,19	10635,10
3869,06	10264,42
3869,92	10487,65
3870,78	10598,24
3871,65	10266,47
3872,51	10755,93
3873,37	10862,43
3874,23	10497,89
3875,10	10418,02
3875,96	10307,43
3876,82	10313,57
3877,68	10602,33
3878,54	10280,80
3879,40	10385,25
3880,26	10319,71
3881,12	10610,53
3881,98	10440,54
3882,84	10540,90
3883,70	10581,85
3884,55	10418,02
3885,41	10489,70
3886,27	10585,95
3887,13	10327,91
3887,99	10549,09
3888,84	10606,43
3889,70	10317,67
3890,56	10323,81
3891,41	10395,49
3892,27	10368,87
3893,12	10116,97
3893,98	10180,45
3894,83	10172,26
3895,69	10168,16
3896,54	10248,04
3897,40	10231,65
3898,25	10286,95
3899,11	10092,39
3899,96	9893,74
3900,81	10041,19
3901,66	10143,59
3902,52	9936,74
3903,37	10086,25
3904,22	9746,28
3905,07	9940,84
3905,92	9807,72
3906,78	9809,77
3907,63	9690,99
>>>>>End Processed Spectral Data<<<<<
