SpectraSuite Datei
++++++++++++++++++++++++++++++++++++
Datum: Wed Nov 28 12:45:13 CET 2018
Benutzer: Raman
Dark-Spektrum vorhanden: Ja
Referenz-Spektrum vorhanden: Ja
Zahl der probierten Teilspektren: 1
Spektrometer: USB4F00098
Integrationszeit (usec): 40000000 (USB4F00098)
Spektren Durchschnitt berechnet: 1 (USB4F00098)
Boxcar Glättung: 0 (USB4F00098)
Dunkelstromkorrektur: Nein (USB4F00098)
Puls/Lampe aktiviert: Nein (USB4F00098)
Correct for Detector Non-linearity: Nein (USB4F00098)
Streulichtkorrektur: Nein (USB4F00098)
Anzahl Pixel in verarbeitetem Spektrum: 3648
>>>>>Begin Processed Spectral Data<<<<<
-2184,52	-59,39
-2181,51	-59,39
-2178,50	-59,39
-2175,49	-28,67
-2172,49	-20,48
-2169,48	364,54
-2166,48	-161,79
-2163,48	-188,41
-2160,47	-104,45
-2157,47	-2,05
-2154,47	77,82
-2151,48	-38,91
-2148,48	26,62
-2145,49	-47,10
-2142,49	12,29
-2139,50	16,38
-2136,51	-38,91
-2133,52	118,78
-2130,53	862,19
-2127,54	1060,85
-2124,55	907,25
-2121,57	1130,48
-2118,58	1290,22
-2115,60	892,91
-2112,62	1136,62
-2109,64	837,62
-2106,66	1236,97
-2103,68	1021,94
-2100,70	1095,66
-2097,73	1003,50
-2094,75	1032,18
-2091,78	1259,50
-2088,81	886,77
-2085,83	854,00
-2082,86	-284,67
-2079,90	962,55
-2076,93	1189,87
-2073,96	1265,64
-2071,00	858,10
-2068,03	1196,01
-2065,07	759,80
-2062,11	1257,45
-2059,15	974,83
-2056,19	970,74
-2053,23	1245,17
-2050,27	1181,68
-2047,32	997,36
-2044,36	1249,26
-2041,41	1028,08
-2038,46	923,63
-2035,51	968,69
-2032,56	1382,38
-2029,61	1161,20
-2026,66	1089,52
-2023,72	1099,76
-2020,77	1210,35
-2017,83	1320,94
-2014,88	1005,55
-2011,94	974,83
-2009,00	1048,56
-2006,06	1327,08
-2003,13	1167,34
-2000,19	870,39
-1997,25	901,11
-1994,32	911,35
-1991,39	792,56
-1988,45	1071,09
-1985,52	1155,05
-1982,59	1181,68
-1979,67	1316,84
-1976,74	1009,65
-1973,81	1384,43
-1970,89	911,35
-1967,96	1071,09
-1965,04	741,36
-1962,12	1271,79
-1959,20	1185,77
-1956,28	1114,09
-1953,36	1009,65
-1950,45	1232,88
-1947,53	983,03
-1944,62	1013,74
-1941,70	1198,06
-1938,79	1136,62
-1935,88	710,65
-1932,97	1189,87
-1930,06	1255,40
-1927,15	856,05
-1924,25	1026,03
-1921,34	774,13
-1918,44	841,72
-1915,54	1347,56
-1912,63	1120,24
-1909,73	1005,55
-1906,83	1122,29
-1903,94	856,05
-1901,04	794,61
-1898,14	1077,23
-1895,25	794,61
-1892,36	1050,61
-1889,46	929,78
-1886,57	669,69
-1883,68	1150,96
-1880,79	1124,33
-1877,91	1245,17
-1875,02	1030,13
-1872,13	1259,50
-1869,25	1284,08
-1866,37	1107,95
-1863,48	913,39
-1860,60	1255,40
-1857,72	757,75
-1854,84	880,63
-1851,97	575,48
-1849,09	1007,60
-1846,22	1015,79
-1843,34	952,31
-1840,47	749,56
-1837,60	833,52
-1834,73	886,77
-1831,86	1009,65
-1828,99	878,58
-1826,12	946,16
-1823,26	1007,60
-1820,39	837,62
-1817,53	1841,12
-1814,67	1034,22
-1811,80	1136,62
-1808,94	847,86
-1806,08	1146,86
-1803,23	876,53
-1800,37	796,66
-1797,51	1085,42
-1794,66	954,35
-1791,81	573,43
-1788,95	1013,74
-1786,10	819,19
-1783,25	960,50
-1780,40	788,47
-1777,56	348,15
-1774,71	1189,87
-1771,86	1150,96
-1769,02	958,45
-1766,18	940,02
-1763,33	825,33
-1760,49	1003,50
-1757,65	1193,97
-1754,81	520,18
-1751,98	1048,56
-1749,14	1105,90
-1746,30	935,92
-1743,47	770,04
-1740,64	956,40
-1737,81	1019,89
-1734,97	841,72
-1732,14	894,96
-1729,32	806,90
-1726,49	1277,93
-1723,66	1040,37
-1720,84	1103,86
-1718,01	1066,99
-1715,19	880,63
-1712,37	1224,69
-1709,55	995,31
-1706,73	1198,06
-1703,91	720,89
-1701,09	837,62
-1698,27	968,69
-1695,46	954,35
-1692,65	835,57
-1689,83	880,63
-1687,02	532,47
-1684,21	892,91
-1681,40	757,75
-1678,59	897,01
-1675,78	1001,46
-1672,98	966,64
-1670,17	1366,00
-1667,37	843,76
-1664,56	1054,70
-1661,76	925,68
-1658,96	1105,90
-1656,16	827,38
-1653,36	841,72
-1650,57	1185,77
-1647,77	829,43
-1644,97	837,62
-1642,18	1036,27
-1639,39	819,19
-1636,60	882,67
-1633,80	647,16
-1631,01	731,12
-1628,23	966,64
-1625,44	847,86
-1622,65	923,63
-1619,87	1288,17
-1617,08	894,96
-1614,30	735,22
-1611,52	806,90
-1608,74	1026,03
-1605,96	1066,99
-1603,18	901,11
-1600,40	1042,42
-1597,62	1265,64
-1594,85	1019,89
-1592,07	886,77
-1589,30	866,29
-1586,53	1249,26
-1583,76	595,96
-1580,99	1050,61
-1578,22	722,93
-1575,45	821,24
-1572,68	890,87
-1569,92	804,85
-1567,15	712,69
-1564,39	792,56
-1561,63	913,39
-1558,86	952,31
-1556,10	866,29
-1553,34	1175,53
-1550,59	1066,99
-1547,83	860,15
-1545,07	997,36
-1542,32	692,21
-1539,56	983,03
-1536,81	876,53
-1534,06	980,98
-1531,31	1144,81
-1528,56	860,15
-1525,81	1265,64
-1523,06	813,04
-1520,32	4390,85
-1517,57	888,82
-1514,83	800,76
-1512,09	1019,89
-1509,34	792,56
-1506,60	935,92
-1503,86	767,99
-1501,12	909,30
-1498,39	571,38
-1495,65	759,80
-1492,91	878,58
-1490,18	837,62
-1487,45	759,80
-1484,71	821,24
-1481,98	905,20
-1479,25	970,74
-1476,52	956,40
-1473,80	675,83
-1471,07	800,76
-1468,34	1052,66
-1465,62	782,32
-1462,89	1054,70
-1460,17	813,04
-1457,45	907,25
-1454,73	1069,04
-1452,01	780,28
-1449,29	942,07
-1446,57	915,44
-1443,86	956,40
-1441,14	989,17
-1438,43	688,12
-1435,71	833,52
-1433,00	751,60
-1430,29	786,42
-1427,58	2111,46
-1424,87	540,66
-1422,16	811,00
-1419,46	931,83
-1416,75	718,84
-1414,05	995,31
-1411,34	901,11
-1408,64	731,12
-1405,94	675,83
-1403,24	804,85
-1400,54	933,87
-1397,84	-2967,51
-1395,14	905,20
-1392,45	892,91
-1389,75	780,28
-1387,06	1003,50
-1384,36	792,56
-1381,67	972,79
-1378,98	974,83
-1376,29	1169,39
-1373,60	1263,60
-1370,91	1185,77
-1368,23	851,95
-1365,54	1122,29
-1362,86	1040,37
-1360,17	1134,57
-1357,49	1183,73
-1354,81	1247,21
-1352,13	886,77
-1349,45	1218,54
-1346,77	866,29
-1344,09	1124,33
-1341,42	1038,32
-1338,74	739,32
-1336,07	1017,84
-1333,39	704,50
-1330,72	1136,62
-1328,05	593,91
-1325,38	655,35
-1322,71	843,76
-1320,04	747,51
-1317,37	1105,90
-1314,71	958,45
-1312,04	993,26
-1309,38	866,29
-1306,72	854,00
-1304,05	1093,62
-1301,39	540,66
-1298,73	505,85
-1296,08	663,54
-1293,42	716,79
-1290,76	731,12
-1288,10	780,28
-1285,45	679,93
-1282,80	774,13
-1280,14	1202,16
-1277,49	1032,18
-1274,84	927,73
-1272,19	737,27
-1269,54	862,19
-1266,90	948,21
-1264,25	1110,00
-1261,60	696,31
-1258,96	950,26
-1256,32	1095,66
-1253,67	901,11
-1251,03	1046,51
-1248,39	997,36
-1245,75	1036,27
-1243,11	761,84
-1240,48	1007,60
-1237,84	1206,25
-1235,20	1040,37
-1232,57	913,39
-1229,94	958,45
-1227,31	784,37
-1224,67	911,35
-1222,04	1083,38
-1219,41	722,93
-1216,79	1105,90
-1214,16	929,78
-1211,53	737,27
-1208,91	581,62
-1206,28	382,97
-1203,66	811,00
-1201,04	1087,47
-1198,42	903,15
-1195,80	901,11
-1193,18	610,29
-1190,56	-561,14
-1187,94	1052,66
-1185,33	694,26
-1182,71	991,22
-1180,10	493,56
-1177,49	817,14
-1174,87	829,43
-1172,26	862,19
-1169,65	593,91
-1167,04	817,14
-1164,44	888,82
-1161,83	831,48
-1159,22	946,16
-1156,62	733,17
-1154,01	663,54
-1151,41	790,52
-1148,81	868,34
-1146,21	782,32
-1143,61	839,67
-1141,01	786,42
-1138,41	743,41
-1135,81	589,81
-1133,22	878,58
-1130,62	974,83
-1128,03	907,25
-1125,44	890,87
-1122,84	798,71
-1120,25	1011,70
-1117,66	696,31
-1115,07	700,41
-1112,49	686,07
-1109,90	1032,18
-1107,31	833,52
-1104,73	704,50
-1102,14	833,52
-1099,56	815,09
-1096,98	735,22
-1094,40	690,17
-1091,82	888,82
-1089,24	845,81
-1086,66	634,87
-1084,08	675,83
-1081,51	886,77
-1078,93	860,15
-1076,36	694,26
-1073,79	739,32
-1071,21	989,17
-1068,64	716,79
-1066,07	335,87
-1063,50	798,71
-1060,93	1241,07
-1058,37	806,90
-1055,80	956,40
-1053,24	692,21
-1050,67	888,82
-1048,11	724,98
-1045,55	919,54
-1042,99	548,86
-1040,42	690,17
-1037,87	1019,89
-1035,31	573,43
-1032,75	1028,08
-1030,19	784,37
-1027,64	897,01
-1025,08	798,71
-1022,53	727,03
-1019,98	559,10
-1017,43	681,97
-1014,88	632,82
-1012,33	653,30
-1009,78	544,76
-1007,23	808,95
-1004,68	684,02
-1002,14	884,72
-999,59	405,50
-997,05	1105,90
-994,51	772,08
-991,96	712,69
-989,42	761,84
-986,88	542,71
-984,34	473,08
-981,81	778,23
-979,27	917,49
-976,73	598,01
-974,20	518,14
-971,66	704,50
-969,13	706,55
-966,60	653,30
-964,07	876,53
-961,54	266,24
-959,01	659,45
-956,48	915,44
-953,95	1034,22
-951,43	839,67
-948,90	815,09
-946,38	712,69
-943,85	767,99
-941,33	669,69
-938,81	698,36
-936,29	493,56
-933,77	651,25
-931,25	858,10
-928,73	866,29
-926,22	1241,07
-923,70	751,60
-921,19	385,02
-918,67	632,82
-916,16	862,19
-913,65	323,58
-911,14	497,66
-908,63	794,61
-906,12	624,63
-903,61	655,35
-901,10	569,34
-898,59	659,45
-896,09	546,81
-893,59	569,34
-891,08	532,47
-888,58	686,07
-886,08	550,90
-883,58	215,04
-881,08	604,15
-878,58	1034,22
-876,08	907,25
-873,58	856,05
-871,09	526,33
-868,59	849,91
-866,10	770,04
-863,61	366,59
-861,12	681,97
-858,62	720,88
-856,13	802,80
-853,64	735,22
-851,16	745,46
-848,67	837,62
-846,18	679,93
-843,70	651,25
-841,21	557,05
-838,73	573,43
-836,25	755,70
-833,77	653,30
-831,28	802,80
-828,81	862,19
-826,33	622,58
-823,85	817,14
-821,37	808,95
-818,90	940,02
-816,42	667,64
-813,95	808,95
-811,47	878,58
-809,00	-757,75
-806,53	835,57
-804,06	995,31
-801,59	714,74
-799,12	540,66
-796,65	1118,19
-794,19	630,77
-791,72	315,39
-789,26	786,42
-786,79	753,65
-784,33	595,96
-781,87	745,46
-779,41	571,38
-776,95	499,70
-774,49	698,36
-772,03	722,93
-769,57	991,22
-767,12	534,52
-764,66	1034,22
-762,21	868,34
-759,75	831,48
-757,30	620,53
-754,85	718,84
-752,40	548,86
-749,95	565,24
-747,50	483,32
-745,05	841,72
-742,60	577,53
-740,16	727,03
-737,71	579,58
-735,27	624,63
-732,82	856,05
-730,38	800,76
-727,94	483,32
-725,50	583,67
-723,06	792,56
-720,62	606,20
-718,18	700,41
-715,74	686,07
-713,31	647,16
-710,87	702,45
-708,44	411,64
-706,01	790,52
-703,57	612,34
-701,14	618,49
-698,71	700,41
-696,28	868,34
-693,85	587,77
-691,42	673,78
-689,00	372,73
-686,57	868,34
-684,15	548,86
-681,72	585,72
-679,30	514,04
-676,88	563,19
-674,45	628,73
-672,03	397,31
-669,61	612,34
-667,20	362,49
-664,78	516,09
-662,36	628,73
-659,94	813,04
-657,53	858,10
-655,12	647,16
-652,70	876,53
-650,29	937,97
-647,88	997,36
-645,47	675,83
-643,06	483,32
-640,65	579,58
-638,24	909,30
-635,83	870,39
-633,43	378,87
-631,02	710,65
-628,62	980,98
-626,22	382,97
-623,81	-1908,71
-621,41	804,85
-619,01	520,18
-616,61	778,23
-614,21	839,67
-611,81	763,89
-609,42	552,95
-607,02	2320,35
-604,63	765,94
-602,23	819,19
-599,84	817,14
-597,45	675,83
-595,05	548,86
-592,66	864,24
-590,27	600,05
-587,88	899,06
-585,50	1058,80
-583,11	954,35
-580,72	522,23
-578,34	1107,95
-575,95	743,41
-573,57	892,91
-571,19	342,01
-568,80	684,02
-566,42	720,88
-564,04	641,01
-561,66	868,34
-559,29	835,57
-556,91	655,35
-554,53	585,72
-552,16	520,18
-549,78	1292,27
-547,41	780,28
-545,03	899,06
-542,66	827,38
-540,29	491,51
-537,92	739,32
-535,55	991,22
-533,18	497,66
-530,81	548,86
-528,45	2068,45
-526,08	550,90
-523,72	747,51
-521,35	694,26
-518,99	808,95
-516,63	661,49
-514,27	901,11
-511,90	618,49
-509,54	821,24
-507,19	587,77
-504,83	671,73
-502,47	565,24
-500,11	716,79
-497,76	784,37
-495,40	790,52
-493,05	780,28
-490,70	985,07
-488,35	706,55
-486,00	718,84
-483,65	845,81
-481,30	1110,00
-478,95	1001,46
-476,60	1130,48
-474,25	987,12
-471,91	972,79
-469,56	763,89
-467,22	1015,79
-464,88	837,62
-462,53	716,79
-460,19	798,71
-457,85	1021,94
-455,51	552,95
-453,17	-5029,81
-450,84	581,62
-448,50	854,00
-446,16	792,56
-443,83	1181,68
-441,49	940,02
-439,16	782,32
-436,83	1103,86
-434,50	940,02
-432,16	749,56
-429,83	878,58
-427,50	899,06
-425,18	747,51
-422,85	987,12
-420,52	790,52
-418,20	899,06
-415,87	913,39
-413,55	1148,91
-411,22	935,92
-408,90	735,22
-406,58	688,12
-404,26	555,00
-401,94	767,99
-399,62	925,68
-397,30	1036,27
-394,99	817,14
-392,67	915,44
-390,35	753,65
-388,04	872,43
-385,73	712,69
-383,41	550,90
-381,10	884,72
-378,79	681,97
-376,48	774,13
-374,17	931,83
-371,86	913,39
-369,55	813,04
-367,25	792,56
-364,94	1019,89
-362,64	989,17
-360,33	894,96
-358,03	649,21
-355,73	858,10
-353,42	1019,89
-351,12	749,56
-348,82	937,97
-346,52	788,47
-344,23	921,59
-341,93	1003,50
-339,63	911,35
-337,34	1038,32
-335,04	497,66
-332,75	944,11
-330,45	968,69
-328,16	837,62
-325,87	874,48
-323,58	686,07
-321,29	991,22
-319,00	976,88
-316,71	604,15
-314,42	585,72
-312,14	729,08
-309,85	575,48
-307,57	755,70
-305,28	501,75
-303,00	376,83
-300,72	841,72
-298,44	581,62
-296,16	495,61
-293,88	565,24
-291,60	544,76
-289,32	878,58
-287,04	559,10
-284,77	944,11
-282,49	344,06
-280,22	309,24
-277,94	702,45
-275,67	659,45
-273,40	894,96
-271,13	589,81
-268,85	628,73
-266,59	354,30
-264,32	507,90
-262,05	659,45
-259,78	776,18
-257,51	555,00
-255,25	782,32
-252,98	825,33
-250,72	684,02
-248,46	761,84
-246,20	432,12
-243,93	475,13
-241,67	200,70
-239,41	780,28
-237,16	487,42
-234,90	589,82
-232,64	518,14
-230,38	806,90
-228,13	538,62
-225,87	561,14
-223,62	280,57
-221,37	647,16
-219,11	663,54
-216,86	417,79
-214,61	440,31
-212,36	700,41
-210,11	880,63
-207,87	419,83
-205,62	483,32
-203,37	387,07
-201,13	776,18
-198,88	485,37
-196,64	782,32
-194,39	690,17
-192,15	573,43
-189,91	612,34
-187,67	839,67
-185,43	528,38
-183,19	532,47
-180,95	438,27
-178,72	679,93
-176,48	741,36
-174,24	450,55
-172,01	466,94
-169,77	534,52
-167,54	772,08
-165,31	661,49
-163,08	546,81
-160,85	751,60
-158,62	579,58
-156,39	733,17
-154,16	587,77
-151,93	643,06
-149,70	653,30
-147,48	743,41
-145,25	460,79
-143,03	645,11
-140,81	569,34
-138,58	509,94
-136,36	708,60
-134,14	632,82
-131,92	696,31
-129,70	997,36
-127,48	604,15
-125,26	862,19
-123,05	587,77
-120,83	612,34
-118,62	767,99
-116,40	833,52
-114,19	829,43
-111,97	479,22
-109,76	514,04
-107,55	321,53
-105,34	647,16
-103,13	409,59
-100,92	606,20
-98,71	804,85
-96,51	772,08
-94,30	706,55
-92,09	526,33
-89,89	313,34
-87,69	888,82
-85,48	1120,24
-83,28	567,29
-81,08	956,40
-78,88	860,15
-76,68	675,83
-74,48	606,20
-72,28	608,25
-70,08	976,88
-67,88	829,43
-65,69	874,48
-63,49	968,69
-61,30	743,41
-59,11	614,39
-56,91	489,46
-54,72	626,68
-52,53	507,90
-50,34	991,22
-48,15	1009,65
-45,96	745,46
-43,77	684,02
-41,59	876,53
-39,40	690,17
-37,21	952,31
-35,03	704,50
-32,84	759,80
-30,66	1124,33
-28,48	1019,89
-26,30	1191,92
-24,12	1951,71
-21,94	2512,86
-19,76	3895,24
-17,58	7724,94
-15,40	12814,14
-13,22	23162,53
-11,05	35212,77
-8,87	46724,41
-6,70	51074,29
-4,52	53744,84
-2,35	40297,88
-0,18	54781,12
1,99	51766,51
4,16	51551,47
6,33	53947,59
8,50	49491,21
10,67	37164,49
12,84	28266,06
15,00	20584,13
17,17	18355,94
19,33	16258,82
21,50	12795,71
23,66	9834,35
25,83	7683,98
27,99	5015,48
30,15	3616,71
32,31	2355,16
34,47	1521,64
36,63	1437,67
38,79	1130,48
40,94	974,83
43,10	823,28
45,25	821,24
47,41	782,32
49,56	907,25
51,72	659,45
53,87	772,08
56,02	858,10
58,17	790,52
60,32	497,66
62,47	374,78
64,62	511,99
66,77	794,61
68,92	657,40
71,06	784,37
73,21	542,71
75,35	692,21
77,50	813,04
79,64	1091,57
81,78	245,76
83,92	677,88
86,06	800,76
88,20	782,32
90,34	909,30
92,48	626,68
94,62	874,48
96,76	636,92
98,89	624,63
101,03	702,45
103,16	741,36
105,30	917,49
107,43	1073,14
109,56	800,76
111,69	675,83
113,82	737,27
115,95	923,63
118,08	700,41
120,21	792,56
122,34	7974,79
124,47	438,27
126,59	694,26
128,72	491,51
130,84	767,99
132,97	600,05
135,09	620,53
137,21	579,58
139,33	608,25
141,45	528,38
143,57	888,82
145,69	393,21
147,81	821,24
149,93	1505,26
152,05	835,57
154,16	778,23
156,28	757,75
158,39	542,71
160,51	692,21
162,62	722,93
164,73	794,61
166,85	948,21
168,96	763,89
171,07	684,02
173,18	651,25
175,28	581,62
177,39	497,66
179,50	659,45
181,61	610,29
183,71	894,96
185,82	757,75
187,92	622,58
190,02	567,29
192,13	710,65
194,23	778,23
196,33	632,82
198,43	694,26
200,53	749,56
202,63	679,93
204,72	636,92
206,82	565,24
208,92	528,38
211,01	593,91
213,11	571,38
215,20	651,25
217,30	350,20
219,39	630,77
221,48	931,83
223,57	587,77
225,66	753,65
227,75	407,55
229,84	856,05
231,93	729,08
234,02	831,48
236,10	649,21
238,19	651,25
240,28	821,24
242,36	888,82
244,44	610,29
246,53	763,89
248,61	1073,14
250,69	849,91
252,77	1112,05
254,85	1255,40
256,93	1308,65
259,01	1294,32
261,09	1650,66
263,16	1314,80
265,24	1751,01
267,32	1748,97
269,39	1964,00
271,46	1769,44
273,54	2170,85
275,61	1994,72
277,68	2303,96
279,75	1992,67
281,82	2107,36
283,89	2170,85
285,96	2191,33
288,03	2263,01
290,10	2287,58
292,16	2355,16
294,23	2281,44
296,29	2160,61
298,36	2322,40
300,42	1871,84
302,49	2265,05
304,55	2267,10
306,61	2328,54
308,67	387,07
310,73	2336,73
312,79	2246,62
314,85	2058,21
316,90	2097,12
318,96	2306,01
321,02	2152,42
323,07	2306,01
325,13	2090,98
327,18	2056,16
329,24	2365,40
331,29	2269,15
333,34	2166,75
335,39	2326,49
337,44	2015,20
339,49	1720,29
341,54	2271,20
343,59	1904,61
345,64	2215,90
347,68	2103,26
349,73	2060,26
351,77	1976,29
353,82	2033,63
355,86	2220,00
357,90	2197,47
359,95	2060,26
361,99	2254,81
364,03	2525,15
366,07	2093,02
368,11	1798,12
370,15	2191,33
372,19	2189,28
374,22	1875,94
376,26	2254,81
378,29	2238,43
380,33	2052,06
382,36	2244,57
384,40	1935,33
386,43	3307,47
388,46	2023,39
390,49	2015,20
392,52	2232,29
394,55	1935,33
396,58	2207,71
398,61	2183,13
400,64	2256,86
402,67	2160,61
404,69	2373,60
406,72	2152,42
408,74	2275,29
410,77	2269,15
412,79	2154,46
414,81	2228,19
416,84	2353,12
418,86	2437,08
420,88	2125,79
422,90	2244,57
424,92	2340,83
426,94	2322,40
428,95	2267,10
430,97	2320,35
432,99	2297,82
435,00	2459,61
437,02	2650,07
439,03	2275,29
441,04	2146,27
443,06	2602,97
445,07	2222,05
447,08	2179,04
449,09	2138,08
451,10	2248,67
453,11	2248,67
455,12	2127,84
457,13	2041,82
459,13	2275,29
461,14	2162,66
463,14	2148,32
465,15	2291,68
467,15	2099,17
469,16	2144,22
471,16	1865,70
473,16	2224,09
475,16	2142,18
477,16	2193,37
479,16	2220,00
481,16	1886,18
483,16	2293,73
485,16	2256,86
487,15	2150,37
489,15	2234,33
491,15	2174,94
493,14	2244,57
495,14	2086,88
497,13	1849,32
499,12	2058,21
501,11	2281,44
503,11	2224,09
505,10	2213,85
507,09	2154,46
509,07	1916,90
511,06	2158,56
513,05	1865,70
515,04	1972,19
517,02	1984,48
519,01	2158,56
521,00	1970,15
522,98	2105,31
524,96	2301,92
526,95	2263,01
528,93	1908,71
530,91	2310,11
532,89	2035,68
534,87	2154,46
536,85	780,28
538,83	1974,24
540,81	2252,77
542,78	1923,04
544,76	1935,33
546,74	2007,01
548,71	2078,69
550,69	1959,91
552,66	1988,58
554,63	2074,59
556,60	2101,22
558,58	1828,84
560,55	1828,84
562,52	2299,87
564,49	2136,03
566,46	1994,72
568,42	2222,05
570,39	2185,18
572,36	2084,83
574,32	1961,95
576,29	2074,59
578,25	1996,77
580,22	1660,90
582,18	1877,99
584,14	2086,88
586,11	1982,43
588,07	2199,52
590,03	1826,79
591,99	2017,25
593,95	1871,84
595,90	2154,46
597,86	1992,67
599,82	1650,66
601,78	2033,63
603,73	1894,37
605,69	1744,87
607,64	2144,22
609,59	2002,91
611,55	1820,64
613,50	1675,24
615,45	1925,09
617,40	1800,16
619,35	2064,35
621,30	1925,09
623,25	2179,04
625,20	2183,13
627,15	2263,01
629,09	2252,77
631,04	1755,11
632,98	2000,87
634,93	1914,85
636,87	2041,82
638,82	1896,42
640,76	1943,52
642,70	2095,07
644,64	2183,13
646,58	1646,57
648,52	1941,47
650,46	1939,43
652,40	1822,69
654,34	1660,90
656,27	1843,17
658,21	2052,06
660,15	1687,53
662,08	1990,63
664,02	2031,58
665,95	1974,24
667,88	1656,81
669,82	1970,15
671,75	1863,65
673,68	1976,29
675,61	1931,23
677,54	1974,24
679,47	1984,48
681,40	1787,88
683,32	2035,68
685,25	1923,04
687,18	1794,02
689,10	1488,87
691,03	1726,44
692,95	1775,59
694,87	1689,57
696,80	1740,77
698,72	1843,17
700,64	1855,46
702,56	1920,99
704,48	1847,27
706,40	1640,42
708,32	2113,50
710,24	2043,87
712,16	1714,15
714,07	1873,89
715,99	2062,30
717,90	1755,11
719,82	1673,19
721,73	1882,08
723,65	1910,75
725,56	1927,14
727,47	1474,54
729,38	1869,80
731,29	1683,43
733,20	1812,45
735,11	1843,17
737,02	1759,21
738,93	1822,69
740,84	2076,64
742,74	1837,03
744,65	1789,92
746,55	1714,15
748,46	1673,19
750,36	1839,08
752,27	1775,59
754,17	1804,26
756,07	1832,93
757,97	1900,51
759,87	2068,45
761,77	1863,65
763,67	1949,67
765,57	1779,68
767,47	2183,13
769,37	1873,89
771,26	1681,38
773,16	1818,60
775,06	1880,04
776,95	1816,55
778,84	2121,70
780,74	1785,83
782,63	1845,22
784,52	1638,38
786,41	1937,38
788,30	1959,91
790,19	1902,56
792,08	1951,71
793,97	1882,08
795,86	1781,73
797,75	1966,05
799,63	1710,05
801,52	1748,97
803,41	1818,60
805,29	1857,51
807,18	1714,15
809,06	2002,91
810,94	2093,02
812,82	1976,29
814,70	1824,74
816,59	1904,61
818,47	1908,71
820,35	1777,64
822,22	1800,16
824,10	2013,15
825,98	1787,88
827,86	1925,09
829,73	2082,78
831,61	1832,93
833,48	1941,47
835,36	2058,21
837,23	1984,48
839,10	1818,60
840,98	1888,23
842,85	1865,70
844,72	1804,26
846,59	1794,02
848,46	1898,47
850,33	2066,40
852,20	1699,81
854,06	2068,45
855,93	2228,19
857,80	2109,41
859,66	2181,09
861,53	2332,64
863,39	1953,76
865,26	2602,97
867,12	2328,54
868,98	3037,14
870,84	3006,42
872,71	3252,17
874,57	3358,67
876,43	3858,37
878,29	3776,45
880,14	3973,06
882,00	3813,32
883,86	3762,12
885,72	3180,50
887,57	3145,68
889,43	2942,93
891,28	2830,29
893,14	2623,45
894,99	2432,99
896,84	2396,12
898,69	2181,09
900,55	2056,16
902,40	1982,43
904,25	1894,37
906,10	1802,21
907,95	1966,05
909,79	1880,04
911,64	1615,85
913,49	1722,34
915,34	1724,39
917,18	1740,77
919,03	1875,94
920,87	1677,29
922,71	1867,75
924,56	1996,77
926,40	1374,19
928,24	1720,29
930,08	1587,18
931,92	1617,90
933,76	1918,95
935,60	1873,89
937,44	1685,48
939,28	1630,18
941,12	1796,07
942,95	1726,44
944,79	1529,83
946,62	1830,88
948,46	1546,22
950,29	1404,91
952,13	1736,68
953,96	1490,92
955,79	1456,11
957,62	1638,38
959,46	1304,56
961,29	1544,17
963,12	1132,53
964,94	1587,18
966,77	1525,74
968,60	1697,77
970,43	1564,65
972,25	1746,92
974,08	1591,27
975,91	1566,70
977,73	1753,06
979,55	1286,12
981,38	1462,25
983,20	1546,22
985,02	1609,70
986,84	1538,02
988,66	1433,58
990,49	1683,43
992,30	1538,02
994,12	1759,21
995,94	1509,35
997,76	1601,51
999,58	1832,93
1001,39	1628,14
1003,21	1671,14
1005,02	1912,80
1006,84	1531,88
1008,65	1773,54
1010,47	1898,47
1012,28	1863,65
1014,09	1447,91
1015,90	2211,81
1017,71	1734,63
1019,52	1736,68
1021,33	641,01
1023,14	1968,10
1024,95	1703,91
1026,76	1597,42
1028,56	1828,84
1030,37	1923,04
1032,18	2029,54
1033,98	2095,07
1035,79	1959,91
1037,59	1914,85
1039,39	2017,25
1041,20	1982,43
1043,00	2199,52
1044,80	1773,54
1046,60	2062,30
1048,40	2029,54
1050,20	2164,70
1052,00	2133,98
1053,80	1931,23
1055,59	1916,90
1057,39	2463,71
1059,19	1902,56
1060,98	1855,46
1062,78	1769,44
1064,57	2080,74
1066,37	1720,29
1068,16	2050,02
1069,95	2033,63
1071,75	2242,53
1073,54	2123,74
1075,33	2148,32
1077,12	2365,40
1078,91	2099,17
1080,70	2334,68
1082,48	2469,85
1084,27	2291,68
1086,06	2336,73
1087,85	2211,81
1089,63	2056,16
1091,42	2373,60
1093,20	2230,24
1094,99	2109,41
1096,77	2439,13
1098,55	2158,56
1100,33	2058,21
1102,12	2033,63
1103,90	2000,87
1105,68	2011,11
1107,46	1734,63
1109,24	1851,36
1111,01	1800,16
1112,79	1837,03
1114,57	1794,02
1116,35	1714,15
1118,12	1970,15
1119,90	1820,64
1121,67	1488,87
1123,45	1560,55
1125,22	1675,24
1126,99	1716,20
1128,77	1716,20
1130,54	1839,08
1132,31	1642,47
1134,08	1818,60
1135,85	1765,35
1137,62	1769,45
1139,39	1783,78
1141,15	1728,49
1142,92	1294,32
1144,69	1507,31
1146,46	1482,73
1148,22	1761,25
1149,99	1531,88
1151,75	1552,36
1153,51	1832,93
1155,28	1501,16
1157,04	1638,38
1158,80	1935,33
1160,56	1402,86
1162,32	1767,40
1164,08	1390,57
1165,84	1675,24
1167,60	1789,92
1169,36	1611,75
1171,12	1779,68
1172,88	1492,97
1174,63	1529,83
1176,39	1456,11
1178,14	1527,78
1179,90	1736,68
1181,65	1564,65
1183,41	1509,35
1185,16	1681,38
1186,91	1728,49
1188,66	1572,84
1190,41	1636,33
1192,16	1609,70
1193,91	1884,13
1195,66	1742,82
1197,41	1544,17
1199,16	1464,30
1200,91	1665,00
1202,66	1927,14
1204,40	1730,53
1206,15	1638,38
1207,89	1206,25
1209,64	1337,32
1211,38	1712,10
1213,12	1380,33
1214,87	1384,43
1216,61	1476,59
1218,35	1677,29
1220,09	1773,54
1221,83	1505,26
1223,57	1392,62
1225,31	1376,24
1227,05	1687,53
1228,79	1456,11
1230,52	1515,50
1232,26	1693,67
1234,00	1716,20
1235,73	1501,16
1237,47	1447,91
1239,20	1535,98
1240,94	1517,54
1242,67	1658,85
1244,40	1435,63
1246,13	1599,46
1247,86	1660,90
1249,60	1576,94
1251,33	1517,54
1253,06	1828,84
1254,78	1814,50
1256,51	1511,40
1258,24	1779,68
1259,97	1449,96
1261,69	1736,68
1263,42	1570,79
1265,15	1714,15
1266,87	1861,60
1268,59	1748,97
1270,32	1818,60
1272,04	1662,95
1273,76	1452,01
1275,49	1775,59
1277,21	1740,77
1278,93	1816,55
1280,65	1964,00
1282,37	1697,77
1284,09	1650,66
1285,81	1877,99
1287,52	2076,64
1289,24	1630,18
1290,96	1937,38
1292,67	1550,31
1294,39	1843,17
1296,10	1722,34
1297,82	1781,73
1299,53	1732,58
1301,24	1619,94
1302,96	1914,85
1304,67	1701,86
1306,38	1632,23
1308,09	1679,33
1309,80	1413,10
1311,51	1703,91
1313,22	1607,66
1314,93	1480,68
1316,64	1513,45
1318,34	1490,92
1320,05	1368,04
1321,75	1431,53
1323,46	1773,54
1325,17	1527,78
1326,87	1611,75
1328,57	1294,32
1330,28	1572,84
1331,98	1527,78
1333,68	1474,54
1335,38	1392,62
1337,08	1458,15
1338,78	1462,25
1340,48	1550,31
1342,18	1785,83
1343,88	1689,57
1345,58	1445,87
1347,28	1742,82
1348,97	1349,61
1350,67	1603,56
1352,36	1544,17
1354,06	1681,38
1355,75	1550,31
1357,45	1531,88
1359,14	1501,16
1360,83	1396,71
1362,53	1632,23
1364,22	1701,86
1365,91	1581,03
1367,60	1566,70
1369,29	1562,60
1370,98	1449,96
1372,67	1808,36
1374,35	1445,87
1376,04	1390,57
1377,73	1910,75
1379,41	1630,18
1381,10	1542,12
1382,79	1556,46
1384,47	1533,93
1386,15	1665,00
1387,84	1785,83
1389,52	1667,05
1391,20	1759,21
1392,88	1482,73
1394,57	1613,80
1396,25	1699,81
1397,93	1621,99
1399,61	1751,01
1401,28	1773,54
1402,96	1677,29
1404,64	1851,36
1406,32	1705,96
1407,99	1507,31
1409,67	1781,73
1411,35	1634,28
1413,02	1589,22
1414,70	1820,64
1416,37	1843,17
1418,04	2076,64
1419,71	1652,71
1421,39	1658,85
1423,06	1722,34
1424,73	1699,81
1426,40	1658,85
1428,07	1583,08
1429,74	1630,18
1431,41	1857,51
1433,08	1710,05
1434,74	1857,51
1436,41	1961,95
1438,08	1828,84
1439,74	1734,63
1441,41	1902,56
1443,07	1902,56
1444,74	2176,99
1446,40	2166,75
1448,06	2344,92
1449,72	2428,89
1451,39	2295,77
1453,05	2439,13
1454,71	2287,58
1456,37	2326,49
1458,03	2422,75
1459,69	2340,83
1461,35	2500,57
1463,00	2222,05
1464,66	2226,14
1466,32	1861,60
1467,97	1875,94
1469,63	1859,56
1471,28	2258,91
1472,94	1751,01
1474,59	2078,69
1476,25	1828,84
1477,90	2056,16
1479,55	1834,98
1481,20	1976,29
1482,85	1746,92
1484,50	-886,77
1486,15	1841,12
1487,80	1542,12
1489,45	1648,61
1491,10	1855,46
1492,75	1779,68
1494,40	1865,70
1496,04	1716,20
1497,69	1871,84
1499,33	1763,30
1500,98	1540,07
1502,62	1847,27
1504,27	1882,08
1505,91	1716,20
1507,55	1968,10
1509,19	1515,50
1510,84	1597,42
1512,48	1609,70
1514,12	1617,90
1515,76	1409,00
1517,40	1624,04
1519,04	1605,61
1520,67	1568,74
1522,31	1501,16
1523,95	1155,05
1525,59	1476,59
1527,22	1667,05
1528,86	1458,15
1530,49	1658,85
1532,13	1665,00
1533,76	1495,02
1535,39	1474,54
1537,03	-4659,13
1538,66	1570,79
1540,29	1150,96
1541,92	1562,60
1543,55	1568,74
1545,18	1779,68
1546,81	1525,74
1548,44	1802,21
1550,07	1820,64
1551,70	1871,84
1553,32	1753,06
1554,95	1531,88
1556,58	1538,02
1558,20	1683,43
1559,83	1527,78
1561,45	1425,39
1563,07	1443,82
1564,70	1554,41
1566,32	1421,29
1567,94	1652,71
1569,56	1517,54
1571,19	1732,58
1572,81	1808,36
1574,43	1638,38
1576,05	1677,29
1577,66	1830,88
1579,28	1486,83
1580,90	1378,28
1582,52	962,55
1584,14	1624,04
1585,75	2060,26
1587,37	1648,61
1588,98	1714,15
1590,60	1667,05
1592,21	1708,01
1593,82	1628,14
1595,44	1662,95
1597,05	1359,85
1598,66	1804,26
1600,27	1333,23
1601,88	1736,68
1603,49	-8503,17
1605,10	1624,04
1606,71	1640,42
1608,32	1513,45
1609,93	1908,71
1611,54	1884,13
1613,14	1552,36
1614,75	2052,06
1616,36	1740,77
1617,96	1861,60
1619,57	1869,80
1621,17	1435,63
1622,77	1871,84
1624,38	1814,50
1625,98	1763,30
1627,58	1671,14
1629,18	1904,61
1630,78	1759,21
1632,38	1572,84
1633,98	1775,59
1635,58	1728,49
1637,18	2176,99
1638,78	2148,32
1640,38	1767,40
1641,98	1882,08
1643,57	2148,32
1645,17	1941,47
1646,76	1888,23
1648,36	1597,42
1649,95	2013,15
1651,55	1812,45
1653,14	1726,44
1654,73	1925,09
1656,33	1886,18
1657,92	1812,45
1659,51	1875,94
1661,10	1728,49
1662,69	1705,96
1664,28	2011,11
1665,87	1834,98
1667,46	1720,29
1669,05	1818,60
1670,63	1640,42
1672,22	1601,51
1673,81	1556,46
1675,39	1605,61
1676,98	1564,65
1678,56	1480,68
1680,15	1794,02
1681,73	1857,51
1683,31	1695,72
1684,90	1916,90
1686,48	1853,41
1688,06	1388,52
1689,64	1550,31
1691,22	1374,19
1692,80	1597,42
1694,38	1431,53
1695,96	1556,46
1697,54	1849,32
1699,12	1658,85
1700,69	1671,14
1702,27	1552,36
1703,85	1347,56
1705,42	1335,28
1707,00	1560,55
1708,57	1349,61
1710,15	1642,47
1711,72	1259,50
1713,29	1468,39
1714,87	1486,83
1716,44	1400,81
1718,01	1400,81
1719,58	1546,22
1721,15	1472,49
1722,72	1554,41
1724,29	1189,87
1725,86	1083,38
1727,43	1519,59
1729,00	1390,57
1730,56	1380,33
1732,13	1329,13
1733,70	1275,88
1735,26	1468,39
1736,83	1400,81
1738,39	1171,44
1739,96	1634,28
1741,52	1390,57
1743,08	1279,98
1744,65	1062,90
1746,21	1421,29
1747,77	1140,72
1749,33	1277,93
1750,89	1040,37
1752,45	1286,12
1754,01	1210,35
1755,57	1286,12
1757,13	1351,66
1758,69	1304,56
1760,24	1304,56
1761,80	1210,35
1763,36	1185,77
1764,91	1226,73
1766,47	1069,04
1768,02	1574,89
1769,58	1419,24
1771,13	1570,79
1772,68	1241,07
1774,24	1456,11
1775,79	968,69
1777,34	1130,48
1778,89	1183,73
1780,44	1273,84
1781,99	1132,53
1783,54	1304,56
1785,09	1302,51
1786,64	1179,63
1788,19	1198,06
1789,73	1257,45
1791,28	1263,60
1792,83	1071,09
1794,37	1288,17
1795,92	1361,90
1797,46	1243,12
1799,01	1378,28
1800,55	1472,49
1802,09	1310,70
1803,64	1259,50
1805,18	1382,38
1806,72	935,92
1808,26	1083,38
1809,80	1386,47
1811,34	1503,21
1812,88	1069,04
1814,42	1290,22
1815,96	1480,68
1817,50	1435,63
1819,04	1245,17
1820,57	722,93
1822,11	1347,56
1823,65	1265,64
1825,18	1257,45
1826,72	1411,05
1828,25	1243,12
1829,78	1243,12
1831,32	1095,66
1832,85	1308,65
1834,38	1384,43
1835,92	1083,38
1837,45	1126,38
1838,98	1155,05
1840,51	1218,54
1842,04	1163,25
1843,57	1157,10
1845,10	1275,88
1846,62	1144,81
1848,15	976,88
1849,68	1116,14
1851,21	1568,74
1852,73	1265,64
1854,26	1257,45
1855,78	1447,91
1857,31	1388,52
1858,83	1040,37
1860,36	1241,07
1861,88	1073,14
1863,40	1425,39
1864,92	1357,80
1866,45	1308,65
1867,97	880,63
1869,49	1183,73
1871,01	1153,01
1872,53	1339,37
1874,05	1167,34
1875,57	1153,01
1877,08	1282,03
1878,60	1202,16
1880,12	1271,79
1881,64	962,55
1883,15	909,30
1884,67	1110,00
1886,18	1538,02
1887,70	987,12
1889,21	1042,42
1890,72	1255,40
1892,24	1089,52
1893,75	858,10
1895,26	1204,21
1896,77	1341,42
1898,28	962,55
1899,79	1157,10
1901,30	1316,84
1902,81	946,16
1904,32	1118,19
1905,83	1011,70
1907,34	1089,52
1908,85	1177,58
1910,35	1124,33
1911,86	1273,84
1913,37	1122,29
1914,87	1112,05
1916,38	1363,95
1917,88	1271,79
1919,39	1114,09
1920,89	1177,58
1922,39	972,79
1923,89	1095,66
1925,40	1351,66
1926,90	1136,62
1928,40	1181,68
1929,90	1355,76
1931,40	1341,42
1932,90	1073,14
1934,40	1015,79
1935,90	1202,16
1937,39	1236,97
1938,89	1286,12
1940,39	1191,92
1941,89	1339,37
1943,38	1202,16
1944,88	755,70
1946,37	1267,69
1947,87	1535,98
1949,36	1101,81
1950,85	1173,49
1952,35	1066,99
1953,84	1042,42
1955,33	1060,85
1956,82	1110,00
1958,31	1257,45
1959,80	1429,48
1961,29	1265,64
1962,78	1011,70
1964,27	1279,98
1965,76	999,41
1967,25	1155,05
1968,74	1386,47
1970,22	1015,79
1971,71	1259,50
1973,20	1085,42
1974,68	1134,57
1976,17	952,31
1977,65	1181,68
1979,14	1146,86
1980,62	1142,77
1982,10	1296,36
1983,58	1482,73
1985,07	1191,92
1986,55	1099,76
1988,03	1720,29
1989,51	1054,70
1990,99	1228,78
1992,47	970,74
1993,95	1554,41
1995,43	1097,71
1996,91	1208,30
1998,38	1300,46
1999,86	1150,96
2001,34	1382,38
2002,81	1116,14
2004,29	1183,73
2005,76	1196,01
2007,24	974,83
2008,71	1148,91
2010,19	1124,33
2011,66	1093,62
2013,13	1077,23
2014,60	1015,79
2016,08	1110,00
2017,55	1275,88
2019,02	1230,83
2020,49	1144,81
2021,96	997,36
2023,43	1239,02
2024,90	1183,73
2026,36	907,25
2027,83	1017,84
2029,30	1148,91
2030,77	997,36
2032,23	1169,39
2033,70	1163,25
2035,16	1202,16
2036,63	1357,80
2038,09	1386,47
2039,56	1433,58
2041,02	1284,08
2042,48	1054,70
2043,95	1409,00
2045,41	1316,84
2046,87	1157,10
2048,33	1153,01
2049,79	1064,94
2051,25	1142,77
2052,71	1398,76
2054,17	1116,14
2055,63	1093,62
2057,09	1337,32
2058,54	956,40
2060,00	942,07
2061,46	1394,67
2062,91	1034,22
2064,37	1066,99
2065,82	987,12
2067,28	1136,62
2068,73	1050,61
2070,19	1189,87
2071,64	1107,95
2073,09	1200,11
2074,54	868,34
2076,00	1140,72
2077,45	888,82
2078,90	1191,92
2080,35	1028,08
2081,80	886,77
2083,25	1222,64
2084,70	1200,11
2086,14	911,35
2087,59	1066,99
2089,04	1277,93
2090,49	1023,98
2091,93	1101,81
2093,38	1347,56
2094,83	1222,64
2096,27	1384,43
2097,71	1153,01
2099,16	937,97
2100,60	1034,22
2102,05	1214,45
2103,49	1187,82
2104,93	1107,95
2106,37	1038,32
2107,81	1081,33
2109,25	1071,09
2110,69	1062,90
2112,13	1054,70
2113,57	935,92
2115,01	1120,24
2116,45	1165,29
2117,89	993,26
2119,33	1185,77
2120,76	927,73
2122,20	714,74
2123,63	1167,34
2125,07	849,91
2126,51	1175,53
2127,94	1040,37
2129,37	1091,57
2130,81	1142,77
2132,24	923,63
2133,67	899,06
2135,11	1095,66
2136,54	1013,74
2137,97	880,63
2139,40	1060,85
2140,83	1206,25
2142,26	1161,20
2143,69	1202,16
2145,12	901,11
2146,55	1171,44
2147,97	946,16
2149,40	851,95
2150,83	1069,04
2152,25	1093,62
2153,68	1058,80
2155,11	1202,16
2156,53	1189,87
2157,96	1005,55
2159,38	1325,04
2160,80	1046,51
2162,23	874,48
2163,65	888,82
2165,07	1239,02
2166,49	1308,65
2167,91	1093,62
2169,33	964,59
2170,75	798,71
2172,17	1144,81
2173,59	1288,17
2175,01	1028,08
2176,43	882,67
2177,85	1148,91
2179,27	872,43
2180,68	995,31
2182,10	1034,22
2183,52	999,41
2184,93	901,11
2186,35	856,05
2187,76	1132,53
2189,18	978,93
2190,59	915,44
2192,00	995,31
2193,42	837,62
2194,83	794,61
2196,24	1343,47
2197,65	958,45
2199,06	2678,74
2200,47	1103,86
2201,88	882,67
2203,29	923,63
2204,70	811,00
2206,11	907,25
2207,52	1173,49
2208,93	870,39
2210,33	989,17
2211,74	985,07
2213,15	933,87
2214,55	1019,89
2215,96	1425,39
2217,36	966,64
2218,77	636,92
2220,17	827,38
2221,57	1093,62
2222,98	970,74
2224,38	841,72
2225,78	1134,57
2227,18	636,92
2228,58	917,49
2229,99	1075,18
2231,39	718,84
2232,79	845,81
2234,18	1001,46
2235,58	913,39
2236,98	923,63
2238,38	854,00
2239,78	890,87
2241,17	860,15
2242,57	1126,38
2243,97	991,22
2245,36	1021,94
2246,76	915,44
2248,15	667,64
2249,55	933,87
2250,94	1175,53
2252,33	1138,67
2253,73	1077,23
2255,12	1064,94
2256,51	1003,50
2257,90	1044,46
2259,29	935,92
2260,68	864,24
2262,07	1042,42
2263,46	1026,03
2264,85	931,83
2266,24	708,60
2267,63	663,54
2269,02	1126,38
2270,40	1054,70
2271,79	794,61
2273,18	1124,33
2274,56	915,44
2275,95	757,75
2277,33	1011,70
2278,72	1069,04
2280,10	1044,46
2281,49	1087,47
2282,87	1069,04
2284,25	999,41
2285,63	839,67
2287,02	956,40
2288,40	993,26
2289,78	663,54
2291,16	974,83
2292,54	933,87
2293,92	1054,70
2295,30	1173,49
2296,68	901,11
2298,05	638,97
2299,43	876,53
2300,81	718,84
2302,19	890,87
2303,56	686,07
2304,94	745,46
2306,31	956,40
2307,69	708,60
2309,06	907,25
2310,44	864,24
2311,81	874,48
2313,19	690,17
2314,56	874,48
2315,93	1013,74
2317,30	786,42
2318,67	958,45
2320,04	901,11
2321,41	913,39
2322,78	948,21
2324,15	790,52
2325,52	782,32
2326,89	884,72
2328,26	753,65
2329,63	993,26
2331,00	686,07
2332,36	604,15
2333,73	1060,85
2335,09	989,17
2336,46	802,80
2337,83	581,62
2339,19	598,01
2340,55	813,04
2341,92	833,52
2343,28	835,57
2344,64	796,66
2346,01	964,59
2347,37	1026,03
2348,73	911,35
2350,09	747,51
2351,45	1042,42
2352,81	641,01
2354,17	-3553,23
2355,53	827,38
2356,89	710,65
2358,25	698,36
2359,61	557,05
2360,96	915,44
2362,32	841,72
2363,68	829,43
2365,03	882,67
2366,39	985,07
2367,74	860,15
2369,10	942,07
2370,45	831,48
2371,81	899,06
2373,16	544,76
2374,51	706,55
2375,86	618,49
2377,22	751,60
2378,57	563,19
2379,92	761,84
2381,27	667,64
2382,62	833,52
2383,97	507,90
2385,32	921,59
2386,67	772,08
2388,02	833,52
2389,37	747,51
2390,71	923,63
2392,06	796,66
2393,41	995,31
2394,75	987,12
2396,10	958,45
2397,44	671,73
2398,79	1042,42
2400,13	763,89
2401,48	890,87
2402,82	727,03
2404,17	933,87
2405,51	825,33
2406,85	804,85
2408,19	960,50
2409,53	1017,84
2410,87	724,98
2412,22	415,74
2413,56	675,83
2414,89	782,32
2416,23	1265,64
2417,57	624,63
2418,91	1060,85
2420,25	630,77
2421,59	905,20
2422,92	532,47
2424,26	960,50
2425,60	399,35
2426,93	831,48
2428,27	833,52
2429,60	1003,50
2430,94	669,69
2432,27	755,70
2433,60	665,59
2434,94	772,08
2436,27	929,78
2437,60	851,95
2438,93	555,00
2440,27	1017,84
2441,60	884,72
2442,93	598,01
2444,26	741,36
2445,59	565,24
2446,92	937,97
2448,24	638,97
2449,57	780,28
2450,90	649,21
2452,23	727,03
2453,55	851,95
2454,88	604,15
2456,21	735,22
2457,53	978,93
2458,86	610,29
2460,18	741,36
2461,51	788,47
2462,83	645,11
2464,15	679,93
2465,48	651,25
2466,80	753,65
2468,12	815,09
2469,44	616,44
2470,76	745,46
2472,09	745,46
2473,41	534,52
2474,73	663,54
2476,05	657,40
2477,36	940,02
2478,68	536,57
2480,00	749,56
2481,32	772,08
2482,64	788,47
2483,95	794,61
2485,27	1112,05
2486,59	622,58
2487,90	638,97
2489,22	811,00
2490,53	739,32
2491,85	727,03
2493,16	991,22
2494,47	675,83
2495,79	688,12
2497,10	806,90
2498,41	665,59
2499,72	557,05
2501,03	749,56
2502,35	714,74
2503,66	516,09
2504,97	577,53
2506,28	718,84
2507,59	634,87
2508,89	184,32
2510,20	747,51
2511,51	16,38
2512,82	544,76
2514,12	-137,21
2515,43	849,91
2516,74	767,99
2518,04	1042,42
2519,35	856,05
2520,65	794,61
2521,96	1028,08
2523,26	514,04
2524,57	540,66
2525,87	503,80
2527,17	802,80
2528,47	518,14
2529,78	589,81
2531,08	767,99
2532,38	811,00
2533,68	722,93
2534,98	671,73
2536,28	823,28
2537,58	751,60
2538,88	724,98
2540,18	647,16
2541,47	911,35
2542,77	686,07
2544,07	710,65
2545,37	557,05
2546,66	659,45
2547,96	647,16
2549,25	-1777,64
2550,55	798,71
2551,84	798,71
2553,14	669,69
2554,43	671,73
2555,72	643,06
2557,02	835,57
2558,31	485,37
2559,60	669,69
2560,89	774,13
2562,18	935,92
2563,48	665,59
2564,77	528,38
2566,06	808,95
2567,35	919,54
2568,63	755,70
2569,92	626,68
2571,21	964,59
2572,50	417,79
2573,79	821,24
2575,07	634,87
2576,36	786,42
2577,65	700,41
2578,93	511,99
2580,22	741,36
2581,50	907,25
2582,79	798,71
2584,07	825,33
2585,36	550,90
2586,64	479,22
2587,92	849,91
2589,20	430,07
2590,49	563,19
2591,77	649,21
2593,05	557,05
2594,33	589,82
2595,61	788,47
2596,89	622,58
2598,17	645,11
2599,45	649,21
2600,73	688,12
2602,00	583,67
2603,28	641,01
2604,56	620,53
2605,84	600,05
2607,11	770,04
2608,39	702,45
2609,67	880,63
2610,94	907,25
2612,22	806,90
2613,49	282,62
2614,76	860,15
2616,04	677,88
2617,31	606,20
2618,58	860,15
2619,86	722,93
2621,13	706,55
2622,40	514,04
2623,67	634,87
2624,94	413,69
2626,21	473,08
2627,48	454,65
2628,75	690,17
2630,02	555,00
2631,29	636,92
2632,56	767,99
2633,82	595,96
2635,09	610,29
2636,36	851,95
2637,63	618,49
2638,89	638,97
2640,16	794,61
2641,42	724,98
2642,69	821,24
2643,95	507,90
2645,22	626,68
2646,48	468,98
2647,74	815,09
2649,01	546,81
2650,27	622,58
2651,53	571,38
2652,79	485,37
2654,05	610,29
2655,31	573,43
2656,57	557,05
2657,83	532,47
2659,09	692,21
2660,35	548,86
2661,61	630,77
2662,87	2570,20
2664,13	804,85
2665,38	772,08
2666,64	827,38
2667,90	456,70
2669,15	837,62
2670,41	659,45
2671,67	495,61
2672,92	792,56
2674,17	884,72
2675,43	931,83
2676,68	688,12
2677,94	987,12
2679,19	589,81
2680,44	638,97
2681,69	714,74
2682,95	851,95
2684,20	389,11
2685,45	636,92
2686,70	948,21
2687,95	780,28
2689,20	649,21
2690,45	843,76
2691,70	563,19
2692,94	618,49
2694,19	694,26
2695,44	1075,18
2696,69	659,45
2697,93	569,34
2699,18	1064,94
2700,43	806,90
2701,67	765,94
2702,92	569,34
2704,16	858,10
2705,41	980,98
2706,65	827,38
2707,89	985,07
2709,14	722,93
2710,38	595,96
2711,62	1042,42
2712,86	960,50
2714,11	858,10
2715,35	952,31
2716,59	751,60
2717,83	651,25
2719,07	698,36
2720,31	935,92
2721,55	882,67
2722,78	966,64
2724,02	823,28
2725,26	1124,33
2726,50	888,82
2727,73	1038,32
2728,97	886,77
2730,21	894,96
2731,44	1058,80
2732,68	948,21
2733,91	942,07
2735,15	958,45
2736,38	694,26
2737,62	692,21
2738,85	804,85
2740,08	847,86
2741,32	1126,38
2742,55	684,02
2743,78	581,62
2745,01	856,05
2746,24	911,35
2747,47	749,56
2748,70	18,43
2749,93	966,64
2751,16	964,59
2752,39	819,19
2753,62	1007,60
2754,85	935,92
2756,08	1030,13
2757,30	907,25
2758,53	690,17
2759,76	921,59
2760,98	1017,84
2762,21	923,63
2763,43	374,78
2764,66	815,09
2765,88	1058,80
2767,11	952,31
2768,33	1015,79
2769,55	1257,45
2770,78	264,19
2772,00	624,63
2773,22	759,80
2774,44	925,68
2775,67	1243,12
2776,89	1003,50
2778,11	763,89
2779,33	956,40
2780,55	1034,22
2781,77	1005,55
2782,99	749,56
2784,20	1179,63
2785,42	1132,53
2786,64	1071,09
2787,86	823,28
2789,07	1044,46
2790,29	579,58
2791,51	839,67
2792,72	892,91
2793,94	634,87
2795,15	1126,38
2796,37	897,01
2797,58	1007,60
2798,80	776,18
2800,01	1030,13
2801,22	1202,16
2802,44	792,56
2803,65	860,15
2804,86	952,31
2806,07	1083,38
2807,28	929,78
2808,49	1095,66
2809,70	1290,22
2810,91	931,83
2812,12	1142,77
2813,33	1144,81
2814,54	1107,95
2815,75	1236,97
2816,96	772,08
2818,16	761,84
2819,37	1218,54
2820,58	1398,76
2821,78	940,02
2822,99	1085,42
2824,20	1064,94
2825,40	1327,08
2826,61	1134,57
2827,81	882,67
2829,01	1447,91
2830,22	1476,59
2831,42	1261,55
2832,62	1245,16
2833,83	1247,21
2835,03	1492,97
2836,23	1431,53
2837,43	1275,88
2838,63	1359,85
2839,83	1343,47
2841,03	1521,64
2842,23	1265,64
2843,43	1730,53
2844,63	1734,63
2845,83	1587,18
2847,03	1460,20
2848,22	1587,18
2849,42	1648,61
2850,62	1662,95
2851,81	1611,75
2853,01	1681,38
2854,21	1787,88
2855,40	1642,47
2856,60	1353,71
2857,79	2017,25
2858,99	1888,23
2860,18	2070,50
2861,37	1992,67
2862,57	1953,76
2863,76	2031,59
2864,95	2189,28
2866,14	2037,73
2867,33	2306,01
2868,52	2471,90
2869,72	2570,20
2870,91	2641,88
2872,10	3151,82
2873,28	3123,15
2874,47	2981,84
2875,66	3164,11
2876,85	3758,02
2878,04	3626,95
2879,23	3614,66
2880,41	4050,88
2881,60	3971,01
2882,79	3647,43
2883,97	4061,12
2885,16	4140,99
2886,34	4184,00
2887,53	4175,81
2888,71	3942,34
2889,90	4079,55
2891,08	4122,56
2892,26	3772,36
2893,45	3712,97
2894,63	3948,48
2895,81	3882,95
2896,99	3790,79
2898,17	3917,76
2899,36	3514,31
2900,54	3729,35
2901,72	3362,76
2902,90	3360,72
2904,08	3370,96
2905,26	3516,36
2906,43	3508,17
2907,61	3585,99
2908,79	3581,90
2909,97	3334,09
2911,14	3524,55
2912,32	3303,37
2913,50	3358,67
2914,67	3299,28
2915,85	3590,09
2917,02	3459,02
2918,20	3706,82
2919,37	3956,68
2920,55	3962,82
2921,72	3841,99
2922,90	4122,56
2924,07	4489,15
2925,24	4681,66
2926,41	5308,33
2927,58	5332,91
2928,76	5906,34
2929,93	5902,25
2931,10	6352,80
2932,27	6829,98
2933,44	7116,69
2934,61	6948,76
2935,78	6348,70
2936,95	6715,29
2938,11	6731,67
2939,28	6909,85
2940,45	6502,30
2941,62	6328,22
2942,78	5881,77
2943,95	5377,97
2945,12	5427,12
2946,28	5398,45
2947,45	5191,60
2948,61	4677,56
2949,78	4763,58
2950,94	4446,14
2952,10	4587,45
2953,27	4104,13
2954,43	4026,31
2955,59	3839,94
2956,76	3741,64
2957,92	3829,70
2959,08	3442,64
2960,24	3405,77
2961,40	3583,95
2962,56	3403,72
2963,72	3428,30
2964,88	3653,58
2966,04	3360,72
2967,20	3426,25
2968,36	3547,08
2969,52	3319,76
2970,67	3725,26
2971,83	3710,92
2972,99	3864,52
2974,14	3813,32
2975,30	3944,39
2976,46	3946,44
2977,61	4452,28
2978,77	4122,56
2979,92	3401,68
2981,08	4067,27
2982,23	4042,69
2983,38	4120,51
2984,54	4532,15
2985,69	4124,61
2986,84	4057,03
2987,99	4550,59
2989,15	3928,00
2990,30	3422,16
2991,45	3086,29
2992,60	3424,20
2993,75	3612,62
2994,90	3608,52
2996,05	3465,16
2997,20	2922,45
2998,35	3381,20
2999,49	3235,79
3000,64	3059,67
3001,79	3184,59
3002,94	2951,12
3004,08	3065,81
3005,23	3000,27
3006,38	2994,13
3007,52	2904,02
3008,67	2799,57
3009,81	3078,10
3010,96	2922,45
3012,10	2666,46
3013,25	2791,38
3014,39	2867,16
3015,53	2768,85
3016,67	2641,88
3017,82	2705,37
3018,96	3065,81
3020,10	2654,17
3021,24	2897,88
3022,38	2961,36
3023,52	2699,22
3024,66	3104,72
3025,80	3086,29
3026,94	3217,36
3028,08	2713,56
3029,22	2912,21
3030,36	2889,68
3031,50	2998,23
3032,63	3033,04
3033,77	3043,28
3034,91	3100,62
3036,04	3420,11
3037,18	3286,99
3038,32	3428,30
3039,45	3213,26
3040,59	3045,33
3041,72	3594,19
3042,86	3487,69
3043,99	3246,03
3045,12	3637,19
3046,26	3590,09
3047,39	3690,44
3048,52	3721,16
3049,65	3606,47
3050,78	3262,41
3051,92	3764,17
3053,05	3663,82
3054,18	3641,29
3055,31	4122,56
3056,44	3694,54
3057,57	4059,07
3058,70	3995,59
3059,82	3887,04
3060,95	3864,52
3062,08	3841,99
3063,21	3459,02
3064,34	4085,70
3065,46	4526,01
3066,59	4308,93
3067,71	4388,80
3068,84	4323,26
3069,97	4546,49
3071,09	4345,79
3072,22	4462,52
3073,34	4558,78
3074,46	4716,47
3075,59	4493,24
3076,71	4446,14
3077,83	4808,63
3078,96	4542,39
3080,08	4925,36
3081,20	4884,41
3082,32	5064,63
3083,44	4499,39
3084,56	4937,65
3085,68	4853,69
3086,80	5177,26
3087,92	4820,92
3089,04	5277,62
3090,16	5418,93
3091,28	5513,13
3092,40	5337,01
3093,51	5228,46
3094,63	5158,83
3095,75	5619,63
3096,87	5277,62
3097,98	5449,64
3099,10	5466,03
3100,21	4982,71
3101,33	5502,89
3102,44	5703,59
3103,56	5531,56
3104,67	6010,79
3105,79	5705,64
3106,90	6231,97
3108,01	6115,23
3109,12	6066,08
3110,24	5992,36
3111,35	6066,08
3112,46	6252,45
3113,57	6481,82
3114,68	6037,41
3115,79	6133,67
3116,90	6692,76
3118,01	7069,59
3119,12	7026,58
3120,23	7077,78
3121,34	6852,50
3122,45	6827,93
3123,56	7188,37
3124,66	6786,97
3125,77	7346,06
3126,88	7360,40
3127,98	7575,44
3129,09	7266,19
3130,20	7454,61
3131,30	7399,31
3132,41	7972,74
3133,51	7921,54
3134,61	7845,77
3135,72	7788,43
3136,82	8183,68
3137,93	8298,37
3139,03	8265,60
3140,13	8284,03
3141,23	8322,94
3142,33	8290,18
3143,44	8527,74
3144,54	8513,41
3145,64	8386,43
3146,74	8023,94
3147,84	8839,03
3148,94	9172,85
3150,04	8888,18
3151,14	9322,35
3152,23	9377,65
3153,33	9303,92
3154,43	9303,92
3155,53	9607,02
3156,63	10114,92
3157,72	10194,79
3158,82	10022,76
3159,91	9877,35
3161,01	10149,73
3162,11	10450,78
3163,20	10432,35
3164,30	10364,77
3165,39	8343,42
3166,48	10233,70
3167,58	10448,74
3168,67	10438,50
3169,76	10506,08
3170,86	10538,85
3171,95	10952,54
3173,04	10843,99
3174,13	10600,29
3175,22	10975,06
3176,31	11005,78
3177,40	10581,85
3178,49	11306,84
3179,58	11175,77
3180,67	10997,59
3181,76	11620,17
3182,85	11542,35
3183,94	11482,96
3185,03	11741,00
3186,11	10458,98
3187,20	11710,29
3188,29	11341,65
3189,37	11865,93
3190,46	11861,84
3191,55	11200,34
3192,63	11329,36
3193,72	11401,04
3194,80	11734,86
3195,89	11738,96
3196,97	11902,79
3198,05	12302,15
3199,14	11804,49
3200,22	12396,35
3201,30	12042,06
3202,38	12410,69
3203,47	12042,06
3204,55	12664,64
3205,63	13033,27
3206,71	11671,37
3207,79	12302,15
3208,87	12484,42
3209,95	12312,39
3211,03	12945,21
3212,11	12832,57
3213,19	11794,25
3214,27	12207,94
3215,34	12488,51
3216,42	12900,16
3217,50	12480,32
3218,58	12810,04
3219,65	12646,21
3220,73	12742,46
3221,80	12988,22
3222,88	13068,09
3223,96	13006,65
3225,03	13449,01
3226,10	13139,77
3227,18	13733,68
3228,25	12678,97
3229,33	13840,17
3230,40	12955,45
3231,47	13336,37
3232,54	13229,88
3233,62	13420,34
3234,69	13692,72
3235,76	13784,88
3236,83	14010,15
3237,90	13840,17
3238,97	13813,55
3240,04	13350,71
3241,11	13629,23
3242,18	13489,97
3243,25	13416,24
3244,32	11894,60
3245,39	13459,25
3246,45	14257,96
3247,52	13614,90
3248,59	13475,63
3249,66	13905,71
3250,72	13987,63
3251,79	14200,62
3252,85	13831,98
3253,92	13879,08
3254,98	13889,32
3256,05	13754,16
3257,11	14278,44
3258,18	13778,73
3259,24	13915,95
3260,30	13860,65
3261,37	13338,42
3262,43	13842,22
3263,49	13791,02
3264,55	13881,13
3265,62	13825,84
3266,68	13367,09
3267,74	14122,79
3268,80	13672,24
3269,86	13784,88
3270,92	13735,73
3271,98	13915,95
3273,04	13956,91
3274,10	13459,25
3275,16	13426,48
3276,21	13694,77
3277,27	12898,11
3278,33	13735,73
3279,39	13530,93
3280,44	13514,55
3281,50	13213,49
3282,56	13018,94
3283,61	12916,54
3284,67	13330,23
3285,72	13825,84
3286,78	12781,37
3287,83	13319,99
3288,88	13332,28
3289,94	13911,85
3290,99	13131,58
3292,04	12427,07
3293,10	13184,82
3294,15	13256,50
3295,20	13510,45
3296,25	13338,42
3297,30	13516,59
3298,36	13162,30
3299,41	13764,40
3300,46	13180,73
3301,51	12955,45
3302,56	13260,60
3303,61	13104,95
3304,65	14055,21
3305,70	13291,32
3306,75	12887,87
3307,80	13311,80
3308,85	13698,86
3309,89	13207,35
3310,94	13463,35
3311,99	13657,90
3313,03	13602,61
3314,08	13092,66
3315,12	13354,80
3316,17	13156,15
3317,21	13664,05
3318,26	14098,22
3319,30	13254,45
3320,35	13842,22
3321,39	13682,48
3322,43	13844,27
3323,48	13643,57
3324,52	14085,93
3325,56	12963,64
3326,60	13711,15
3327,64	13696,82
3328,68	13582,13
3329,73	13199,16
3330,77	14042,92
3331,81	13948,72
3332,85	13672,24
3333,88	13618,99
3334,92	13319,99
3335,96	14100,26
3337,00	13416,24
3338,04	13848,36
3339,08	14085,93
3340,11	14116,65
3341,15	13481,78
3342,19	14149,42
3343,22	14305,06
3344,26	13608,75
3345,30	13637,42
3346,33	13885,23
3347,37	13678,38
3348,40	13817,65
3349,43	13338,42
3350,47	13963,05
3351,50	13801,26
3352,54	13473,59
3353,57	14036,78
3354,60	13760,30
3355,63	14116,65
3356,67	14124,84
3357,70	14059,31
3358,73	12586,82
3359,76	13481,78
3360,79	14071,59
3361,82	14081,83
3362,85	13893,42
3363,88	13737,77
3364,91	13610,80
3365,94	13412,15
3366,97	13547,31
3367,99	13905,71
3369,02	13995,82
3370,05	12826,43
3371,08	13662,00
3372,10	13616,94
3373,13	13680,43
3374,16	14030,63
3375,18	13508,40
3376,21	13913,90
3377,23	14010,15
3378,26	13942,57
3379,28	13852,46
3380,31	13725,49
3381,33	14153,51
3382,35	14169,90
3383,38	13602,61
3384,40	13709,10
3385,42	13516,59
3386,45	13936,43
3387,47	13694,77
3388,49	13862,70
3389,51	13178,68
3390,53	13846,32
3391,55	13598,51
3392,57	13969,19
3393,59	13758,25
3394,61	13872,94
3395,63	13817,65
3396,65	13401,91
3397,67	12859,20
3398,69	13801,26
3399,70	13299,51
3400,72	13332,28
3401,74	13924,14
3402,76	12914,49
3403,77	13729,58
3404,79	13819,69
3405,80	13512,50
3406,82	13305,65
3407,83	12734,27
3408,85	13537,07
3409,86	13473,59
3410,88	13797,17
3411,89	14069,55
3412,91	13696,82
3413,92	13676,34
3414,93	13420,34
3415,94	13586,22
3416,96	12838,72
3417,97	13195,06
3418,98	13563,70
3419,99	16471,81
3421,00	13991,72
3422,01	13684,53
3423,02	13625,14
3424,03	13489,97
3425,04	13635,38
3426,05	13793,07
3427,06	14114,60
3428,07	14137,13
3429,08	13860,65
3430,09	13500,21
3431,09	13965,10
3432,10	14300,97
3433,11	14327,59
3434,12	14251,81
3435,12	13614,90
3436,13	13436,72
3437,13	13973,29
3438,14	13141,82
3439,14	13489,97
3440,15	13383,48
3441,15	13223,73
3442,16	13502,26
3443,16	13696,82
3444,16	12894,01
3445,17	13393,72
3446,17	13262,65
3447,17	13010,75
3448,17	13242,17
3449,18	12834,62
3450,18	12597,06
3451,18	13510,45
3452,18	13762,35
3453,18	13098,81
3454,18	12984,12
3455,18	13254,45
3456,18	13143,86
3457,18	13121,34
3458,18	13193,01
3459,17	12418,88
3460,17	12926,78
3461,17	12306,24
3462,17	12506,95
3463,17	12683,07
3464,16	12560,19
3465,16	12080,97
3466,15	12367,68
3467,15	12529,47
3468,15	12199,75
3469,14	12126,02
3470,14	12345,16
3471,13	12336,96
3472,13	11839,31
3473,12	12080,97
3474,11	11913,03
3475,11	12023,62
3476,10	11657,04
3477,09	11806,54
3478,08	11853,64
3479,08	11552,59
3480,07	11218,77
3481,06	11425,62
3482,05	11353,94
3483,04	11403,09
3484,03	11622,22
3485,02	11390,80
3486,01	11415,38
3487,00	10954,58
3487,99	10346,34
3488,98	11315,03
3489,97	10700,64
3490,95	10817,37
3491,94	10618,72
3492,93	10895,19
3493,92	11040,60
3494,90	10135,40
3495,89	10332,00
3496,88	10329,95
3497,86	9707,37
3498,85	10483,55
3499,83	10202,98
3500,82	10536,80
3501,80	10295,14
3502,79	10264,42
3503,77	10186,60
3504,75	10078,05
3505,74	10090,34
3506,72	10086,25
3507,70	10133,35
3508,68	10094,44
3509,67	9934,70
3510,65	9781,10
3511,63	10057,57
3512,61	9989,99
3513,59	9744,24
3514,57	9303,92
3515,55	9334,64
3516,53	9518,96
3517,51	9617,26
3518,49	9918,31
3519,47	9604,97
3520,45	8976,25
3521,42	8966,01
3522,40	9330,55
3523,38	9121,65
3524,36	9209,72
3525,33	9041,78
3526,31	9332,59
3527,29	9148,28
3528,26	8865,66
3529,24	9217,91
3530,21	8935,29
3531,19	8974,20
3532,16	8888,18
3533,14	8841,08
3534,11	8767,35
3535,08	8990,58
3536,06	8671,10
3537,03	8599,42
3538,00	8646,52
3538,98	8634,24
3539,95	8251,27
3540,92	8427,39
3541,89	8230,79
3542,86	8259,46
3543,83	8419,20
3544,80	7673,74
3545,77	7843,72
3546,74	8087,43
3547,71	7829,38
3548,68	8030,09
3549,65	7726,99
3550,62	7661,45
3551,59	7894,92
3552,56	8060,80
3553,52	8015,75
3554,49	7724,94
3555,46	7591,82
3556,42	7665,55
3557,39	7557,00
3558,36	7559,05
3559,32	6754,20
3560,29	7131,03
3561,25	7040,92
3562,22	7237,52
3563,18	7384,98
3564,15	6301,60
3565,11	6961,05
3566,07	6883,22
3567,04	6883,22
3568,00	7026,58
3568,96	6518,68
3569,92	6803,35
3570,89	6543,26
3571,85	6713,24
3572,81	6793,11
3573,77	6829,98
3574,73	6703,00
3575,69	6389,66
3576,65	6387,61
3577,61	6047,65
3578,57	5816,23
3579,53	6238,11
3580,49	6076,32
3581,45	6184,87
3582,40	5941,16
3583,36	5531,56
3584,32	6246,30
3585,28	6008,74
3586,23	5969,83
3587,19	6131,62
3588,15	5879,72
3589,10	5980,07
3590,06	6049,70
3591,01	5679,02
3591,97	5685,16
3592,92	5584,81
3593,88	5918,63
3594,83	5562,28
3595,78	5576,62
3596,74	5582,76
3597,69	5373,87
3598,64	5541,80
3599,60	5648,30
3600,55	5296,05
3601,50	5115,83
3602,45	5648,30
3603,40	5496,75
3604,35	5490,60
3605,31	5506,99
3606,26	5574,57
3607,21	5347,25
3608,16	5267,38
3609,10	5377,97
3610,05	5117,87
3611,00	4974,52
3611,95	5068,72
3612,90	4792,25
3613,85	4722,62
3614,79	5009,33
3615,74	4829,11
3616,69	4552,63
3617,63	4949,94
3618,58	4911,03
3619,53	4777,91
3620,47	4689,85
3621,42	4622,27
3622,36	4695,99
3623,31	4380,61
3624,25	4571,07
3625,20	4642,75
3626,14	4517,82
3627,08	4437,95
3628,03	4358,08
3628,97	4353,98
3629,91	4282,30
3630,85	4607,93
3631,80	4655,03
3632,74	4632,51
3633,68	4329,41
3634,62	4239,30
3635,56	4227,01
3636,50	4151,23
3637,44	4063,17
3638,38	3993,54
3639,32	4437,95
3640,26	3942,34
3641,20	4061,12
3642,14	3862,47
3643,08	4065,22
3644,01	4319,17
3644,95	3991,49
3645,89	3952,58
3646,83	3930,05
3647,76	3706,82
3648,70	3663,82
3649,63	3633,10
3650,57	3448,78
3651,51	3663,82
3652,44	3477,45
3653,38	3256,27
3654,31	3475,40
3655,24	3680,20
3656,18	3379,15
3657,11	3565,51
3658,05	3332,05
3658,98	3196,88
3659,91	3194,83
3660,84	2987,99
3661,78	2928,60
3662,71	2527,19
3663,64	2981,84
3664,57	2947,03
3665,50	2793,43
3666,43	2887,64
3667,36	2596,82
3668,29	2453,47
3669,22	2496,47
3670,15	2623,45
3671,08	2217,95
3672,01	2631,64
3672,94	2521,05
3673,86	2349,02
3674,79	2351,07
3675,72	1992,67
3676,65	2158,56
3677,57	1959,91
3678,50	2238,43
3679,43	2236,38
3680,35	2101,22
3681,28	2045,92
3682,20	2103,26
3683,13	2152,42
3684,05	1869,80
3684,98	2009,06
3685,90	2015,20
3686,83	2009,06
3687,75	2072,54
3688,67	1877,99
3689,60	1650,66
3690,52	1839,08
3691,44	1789,92
3692,36	1466,35
3693,28	1816,55
3694,21	1714,15
3695,13	1570,79
3696,05	1814,50
3696,97	1351,66
3697,89	1437,67
3698,81	1335,28
3699,73	1343,47
3700,65	1495,02
3701,57	1337,32
3702,48	1497,07
3703,40	1288,17
3704,32	1480,68
3705,24	1282,03
3706,16	1560,55
3707,07	1353,71
3707,99	1155,05
3708,91	1144,81
3709,82	1177,58
3710,74	997,36
3711,66	1054,70
3712,57	1183,73
3713,49	1314,80
3714,40	960,50
3715,31	733,17
3716,23	1130,48
3717,14	974,83
3718,06	1122,29
3718,97	989,17
3719,88	878,58
3720,80	1165,29
3721,71	0,00
3722,62	999,41
3723,53	0,00
3724,44	884,72
3725,35	0,00
3726,26	862,19
3727,18	7131,03
3728,09	870,39
3729,00	940,02
3729,91	696,31
3730,81	684,02
3731,72	765,94
3732,63	587,77
3733,54	698,36
3734,45	632,82
3735,36	1062,90
3736,26	704,50
3737,17	905,20
3738,08	1286,12
3738,99	718,84
3739,89	786,42
3740,80	813,04
3741,70	595,96
3742,61	946,16
3743,51	757,75
3744,42	555,00
3745,32	653,30
3746,23	622,58
3747,13	583,67
3748,04	643,06
3748,94	524,28
3749,84	792,56
3750,74	675,83
3751,65	759,80
3752,55	679,93
3753,45	475,13
3754,35	489,46
3755,25	579,58
3756,16	634,87
3757,06	446,46
3757,96	499,70
3758,86	649,21
3759,76	491,51
3760,66	518,14
3761,55	806,90
3762,45	657,40
3763,35	550,90
3764,25	755,70
3765,15	622,58
3766,05	755,70
3766,94	821,24
3767,84	448,51
3768,74	483,32
3769,63	524,28
3770,53	409,59
3771,43	598,01
3772,32	559,10
3773,22	540,66
3774,11	385,02
3775,01	458,75
3775,90	499,70
3776,80	145,41
3777,69	677,88
3778,58	708,60
3779,48	352,25
3780,37	325,63
3781,26	563,19
3782,16	284,67
3783,05	122,88
3783,94	540,66
3784,83	552,95
3785,72	522,23
3786,61	331,77
3787,50	516,09
3788,39	368,63
3789,28	511,99
3790,17	430,07
3791,06	628,73
3791,95	382,97
3792,84	423,93
3793,73	368,63
3794,62	307,20
3795,51	423,93
3796,39	694,26
3797,28	366,59
3798,17	374,78
3799,06	419,83
3799,94	632,82
3800,83	657,40
3801,71	501,75
3802,60	264,19
3803,48	624,63
3804,37	589,81
3805,25	430,07
3806,14	509,94
3807,02	438,27
3807,91	477,18
3808,79	301,05
3809,67	296,96
3810,56	790,52
3811,44	536,57
3812,32	225,28
3813,20	38,91
3814,09	626,68
3814,97	159,74
3815,85	643,06
3816,73	391,16
3817,61	178,17
3818,49	516,09
3819,37	135,17
3820,25	575,48
3821,13	477,18
3822,01	327,68
3822,89	231,42
3823,77	358,39
3824,65	448,51
3825,52	362,49
3826,40	174,08
3827,28	323,58
3828,16	528,38
3829,03	278,52
3829,91	440,31
3830,79	329,72
3831,66	892,91
3832,54	391,16
3833,41	704,50
3834,29	180,22
3835,16	409,59
3836,04	550,90
3836,91	178,17
3837,79	497,66
3838,66	485,37
3839,53	245,76
3840,41	315,39
3841,28	548,86
3842,15	387,07
3843,02	159,74
3843,90	247,80
3844,77	497,66
3845,64	327,67
3846,51	311,29
3847,38	325,63
3848,25	321,53
3849,12	159,74
3849,99	143,36
3850,86	159,74
3851,73	346,11
3852,60	143,36
3853,47	350,20
3854,34	258,04
3855,21	378,87
3856,07	86,01
3856,94	243,71
3857,81	446,46
3858,68	176,13
3859,54	688,12
3860,41	239,61
3861,28	305,15
3862,14	610,29
3863,01	372,73
3863,87	362,49
3864,74	-20,48
3865,60	202,75
3866,47	456,70
3867,33	151,55
3868,19	452,60
3869,06	329,72
3869,92	516,09
3870,78	450,55
3871,65	319,48
3872,51	333,82
3873,37	-165,89
3874,23	243,71
3875,10	305,15
3875,96	215,04
3876,82	309,24
3877,68	260,09
3878,54	358,39
3879,40	290,81
3880,26	256,00
3881,12	393,21
3881,98	395,26
3882,84	292,86
3883,70	63,49
3884,55	425,98
3885,41	409,59
3886,27	436,22
3887,13	247,80
3887,99	231,42
3888,84	493,56
3889,70	348,15
3890,56	243,71
3891,41	274,43
3892,27	374,78
3893,12	278,52
3893,98	196,60
3894,83	569,34
3895,69	401,40
3896,54	221,18
3897,40	481,27
3898,25	374,78
3899,11	536,57
3899,96	47,10
3900,81	307,20
3901,66	337,91
3902,52	194,56
3903,37	415,74
3904,22	153,60
3905,07	284,67
3905,92	366,59
3906,78	479,22
3907,63	260,09
>>>>>End Processed Spectral Data<<<<<
