SpectraSuite Datei
++++++++++++++++++++++++++++++++++++
Datum: Wed Nov 28 12:56:32 CET 2018
Benutzer: Raman
Dark-Spektrum vorhanden: Ja
Referenz-Spektrum vorhanden: Ja
Zahl der probierten Teilspektren: 1
Spektrometer: USB4F00098
Integrationszeit (usec): 40000000 (USB4F00098)
Spektren Durchschnitt berechnet: 1 (USB4F00098)
Boxcar Glättung: 0 (USB4F00098)
Dunkelstromkorrektur: Nein (USB4F00098)
Puls/Lampe aktiviert: Nein (USB4F00098)
Correct for Detector Non-linearity: Nein (USB4F00098)
Streulichtkorrektur: Nein (USB4F00098)
Anzahl Pixel in verarbeitetem Spektrum: 3648
>>>>>Begin Processed Spectral Data<<<<<
-2184,52	-71,68
-2181,51	-71,68
-2178,50	-71,68
-2175,49	-2,05
-2172,49	-43,01
-2169,48	167,93
-2166,48	-129,02
-2163,48	-96,25
-2160,47	-104,45
-2157,47	-71,68
-2154,47	-53,25
-2151,48	-143,36
-2148,48	53,25
-2145,49	-86,01
-2142,49	-2,05
-2139,50	38,91
-2136,51	0,00
-2133,52	6,14
-2130,53	489,46
-2127,54	534,52
-2124,55	436,22
-2121,57	712,69
-2118,58	598,01
-2115,60	606,20
-2112,62	583,67
-2109,64	348,15
-2106,66	825,33
-2103,68	649,21
-2100,70	733,17
-2097,73	606,20
-2094,75	593,91
-2091,78	557,05
-2088,81	552,95
-2085,83	468,98
-2082,86	-675,83
-2079,90	481,27
-2076,93	729,08
-2073,96	466,94
-2071,00	200,70
-2068,03	716,79
-2065,07	339,96
-2062,11	858,10
-2059,15	944,11
-2056,19	565,24
-2053,23	767,99
-2050,27	753,65
-2047,32	649,21
-2044,36	858,10
-2041,41	761,84
-2038,46	405,50
-2035,51	460,79
-2032,56	1146,86
-2029,61	493,56
-2026,66	587,77
-2023,72	653,30
-2020,77	774,13
-2017,83	495,61
-2014,88	573,43
-2011,94	712,69
-2009,00	626,68
-2006,06	665,59
-2003,13	786,42
-2000,19	575,48
-1997,25	505,85
-1994,32	661,49
-1991,39	782,32
-1988,45	718,84
-1985,52	757,75
-1982,59	636,92
-1979,67	878,58
-1976,74	468,98
-1973,81	802,80
-1970,89	675,83
-1967,96	589,82
-1965,04	557,05
-1962,12	659,45
-1959,20	659,45
-1956,28	411,64
-1953,36	585,72
-1950,45	667,64
-1947,53	477,18
-1944,62	743,41
-1941,70	686,07
-1938,79	407,55
-1935,88	303,10
-1932,97	575,48
-1930,06	774,13
-1927,15	497,66
-1924,25	546,81
-1921,34	428,03
-1918,44	665,59
-1915,54	700,41
-1912,63	616,44
-1909,73	704,50
-1906,83	763,89
-1903,94	778,23
-1901,04	552,95
-1898,14	628,73
-1895,25	622,58
-1892,36	233,47
-1889,46	507,90
-1886,57	579,58
-1883,68	643,06
-1880,79	651,25
-1877,91	479,22
-1875,02	577,53
-1872,13	718,84
-1869,25	573,43
-1866,37	604,15
-1863,48	438,27
-1860,60	702,45
-1857,72	559,10
-1854,84	585,72
-1851,97	417,79
-1849,09	710,65
-1846,22	493,56
-1843,34	458,75
-1840,47	362,49
-1837,60	526,33
-1834,73	632,82
-1831,86	567,29
-1828,99	425,98
-1826,12	499,70
-1823,26	724,98
-1820,39	423,93
-1817,53	808,95
-1814,67	339,96
-1811,80	573,43
-1808,94	450,55
-1806,08	585,72
-1803,23	569,34
-1800,37	645,11
-1797,51	1060,85
-1794,66	624,63
-1791,81	376,83
-1788,95	677,88
-1786,10	561,14
-1783,25	438,27
-1780,40	415,74
-1777,56	401,40
-1774,71	286,72
-1771,86	509,94
-1769,02	636,92
-1766,18	534,52
-1763,33	557,05
-1760,49	583,67
-1757,65	913,39
-1754,81	260,09
-1751,98	374,78
-1749,14	641,01
-1746,30	315,39
-1743,47	264,19
-1740,64	722,93
-1737,81	675,83
-1734,97	511,99
-1732,14	448,51
-1729,32	423,93
-1726,49	970,74
-1723,66	477,18
-1720,84	661,49
-1718,01	522,23
-1715,19	544,76
-1712,37	630,77
-1709,55	573,43
-1706,73	526,33
-1703,91	348,15
-1701,09	126,97
-1698,27	440,31
-1695,46	618,49
-1692,65	604,15
-1689,83	174,08
-1687,02	247,80
-1684,21	206,84
-1681,40	462,84
-1678,59	317,44
-1675,78	378,87
-1672,98	237,56
-1670,17	690,17
-1667,37	643,06
-1664,56	559,10
-1661,76	706,55
-1658,96	677,88
-1656,16	241,66
-1653,36	696,31
-1650,57	514,04
-1647,77	307,20
-1644,97	337,91
-1642,18	509,94
-1639,39	552,95
-1636,60	659,45
-1633,80	290,81
-1631,01	184,32
-1628,23	507,90
-1625,44	479,22
-1622,65	1064,94
-1619,87	796,66
-1617,08	354,30
-1614,30	317,44
-1611,52	282,62
-1608,74	532,47
-1605,96	731,12
-1603,18	305,15
-1600,40	473,08
-1597,62	788,47
-1594,85	534,52
-1592,07	391,16
-1589,30	466,94
-1586,53	770,04
-1583,76	458,75
-1580,99	565,24
-1578,22	391,16
-1575,45	559,10
-1572,68	491,51
-1569,92	374,78
-1567,15	557,05
-1564,39	372,73
-1561,63	868,34
-1558,86	780,28
-1556,10	311,29
-1553,34	563,19
-1550,59	608,25
-1547,83	606,20
-1545,07	376,83
-1542,32	362,49
-1539,56	595,96
-1536,81	673,78
-1534,06	393,21
-1531,31	630,77
-1528,56	481,27
-1525,81	667,64
-1523,06	579,58
-1520,32	3577,80
-1517,57	409,59
-1514,83	397,31
-1512,09	583,67
-1509,34	317,44
-1506,60	491,51
-1503,86	593,91
-1501,12	249,85
-1498,39	391,16
-1495,65	522,23
-1492,91	507,90
-1490,18	561,14
-1487,45	399,35
-1484,71	296,96
-1481,98	360,44
-1479,25	673,78
-1476,52	522,23
-1473,80	126,97
-1471,07	495,61
-1468,34	659,45
-1465,62	395,26
-1462,89	481,27
-1460,17	911,35
-1457,45	724,98
-1454,73	518,14
-1452,01	364,54
-1449,29	665,59
-1446,57	690,17
-1443,86	684,02
-1441,14	675,83
-1438,43	239,61
-1435,71	415,74
-1433,00	245,76
-1430,29	395,26
-1427,58	1462,25
-1424,87	636,92
-1422,16	585,72
-1419,46	417,79
-1416,75	198,65
-1414,05	479,22
-1411,34	399,35
-1408,64	73,73
-1405,94	202,75
-1403,24	356,35
-1400,54	401,40
-1397,84	9873,26
-1395,14	378,87
-1392,45	628,73
-1389,75	380,92
-1387,06	212,99
-1384,36	270,33
-1381,67	389,11
-1378,98	622,58
-1376,29	585,72
-1373,60	616,44
-1370,91	526,33
-1368,23	450,55
-1365,54	647,16
-1362,86	479,22
-1360,17	747,51
-1357,49	473,08
-1354,81	655,35
-1352,13	376,83
-1349,45	743,41
-1346,77	415,74
-1344,09	505,85
-1341,42	503,80
-1338,74	276,48
-1336,07	567,29
-1333,39	434,17
-1330,72	598,01
-1328,05	315,39
-1325,38	534,52
-1322,71	544,76
-1320,04	124,93
-1317,37	456,70
-1314,71	405,50
-1312,04	530,42
-1309,38	573,43
-1306,72	524,28
-1304,05	485,37
-1301,39	536,57
-1298,73	360,44
-1296,08	407,55
-1293,42	333,82
-1290,76	208,89
-1288,10	450,55
-1285,45	221,18
-1282,80	452,60
-1280,14	604,15
-1277,49	428,03
-1274,84	182,27
-1272,19	397,31
-1269,54	391,16
-1266,90	235,52
-1264,25	450,55
-1261,60	225,28
-1258,96	595,96
-1256,32	540,66
-1253,67	563,19
-1251,03	559,10
-1248,39	395,26
-1245,75	522,23
-1243,11	419,83
-1240,48	487,42
-1237,84	624,63
-1235,20	655,35
-1232,57	526,33
-1229,94	765,94
-1227,31	475,13
-1224,67	165,89
-1222,04	358,39
-1219,41	487,42
-1216,79	647,16
-1214,16	765,94
-1211,53	454,65
-1208,91	282,62
-1206,28	75,77
-1203,66	569,34
-1201,04	309,24
-1198,42	591,86
-1195,80	690,17
-1193,18	208,89
-1190,56	-976,88
-1187,94	628,73
-1185,33	491,51
-1182,71	411,64
-1180,10	12,29
-1177,49	239,61
-1174,87	352,25
-1172,26	274,43
-1169,65	110,59
-1167,04	389,11
-1164,44	458,75
-1161,83	542,71
-1159,22	399,35
-1156,62	307,20
-1154,01	493,56
-1151,41	317,44
-1148,81	487,42
-1146,21	184,32
-1143,61	344,06
-1141,01	391,16
-1138,41	167,93
-1135,81	354,30
-1133,22	380,92
-1130,62	1773,54
-1128,03	641,01
-1125,44	360,44
-1122,84	487,42
-1120,25	714,74
-1117,66	126,97
-1115,07	284,67
-1112,49	157,69
-1109,90	493,56
-1107,31	403,45
-1104,73	239,61
-1102,14	614,39
-1099,56	215,04
-1096,98	378,87
-1094,40	321,53
-1091,82	286,72
-1089,24	313,34
-1086,66	446,46
-1084,08	301,05
-1081,51	505,85
-1078,93	428,03
-1076,36	196,60
-1073,79	145,41
-1071,21	559,10
-1068,64	333,82
-1066,07	98,30
-1063,50	542,71
-1060,93	462,84
-1058,37	258,04
-1055,80	280,57
-1053,24	262,14
-1050,67	479,22
-1048,11	555,00
-1045,55	505,85
-1042,99	305,15
-1040,42	141,31
-1037,87	389,11
-1035,31	372,73
-1032,75	532,47
-1030,19	520,18
-1027,64	530,42
-1025,08	530,42
-1022,53	356,35
-1019,98	415,74
-1017,43	303,10
-1014,88	106,49
-1012,33	272,38
-1009,78	331,77
-1007,23	208,89
-1004,68	262,14
-1002,14	434,17
-999,59	81,92
-997,05	485,37
-994,51	430,07
-991,96	296,96
-989,42	548,86
-986,88	452,60
-984,34	251,90
-981,81	450,55
-979,27	184,32
-976,73	430,07
-974,20	75,77
-971,66	399,35
-969,13	270,33
-966,60	438,27
-964,07	208,89
-961,54	-14,34
-959,01	376,83
-956,48	405,50
-953,95	485,37
-951,43	593,91
-948,90	428,03
-946,38	346,11
-943,85	133,12
-941,33	309,24
-938,81	380,92
-936,29	114,69
-933,77	446,46
-931,25	456,70
-928,73	401,40
-926,22	501,75
-923,70	288,76
-921,19	10,24
-918,67	292,86
-916,16	161,79
-913,65	200,70
-911,14	311,29
-908,63	382,97
-906,12	366,59
-903,61	450,55
-901,10	342,01
-898,59	438,27
-896,09	401,40
-893,59	272,38
-891,08	415,74
-888,58	536,57
-886,08	657,40
-883,58	163,84
-881,08	591,86
-878,58	604,15
-876,08	749,56
-873,58	614,39
-871,09	567,29
-868,59	587,77
-866,10	505,85
-863,61	409,59
-861,12	399,35
-858,62	387,07
-856,13	202,75
-853,64	321,53
-851,16	397,31
-848,67	294,91
-846,18	460,79
-843,70	176,13
-841,21	210,94
-838,73	385,02
-836,25	452,60
-833,77	282,62
-831,28	354,30
-828,81	612,34
-826,33	313,34
-823,85	350,20
-821,37	294,91
-818,90	290,81
-816,42	335,87
-813,95	542,71
-811,47	245,76
-809,00	-1216,49
-806,53	516,09
-804,06	202,75
-801,59	2645,98
-799,12	172,03
-796,65	620,53
-794,19	188,41
-791,72	245,76
-789,26	626,68
-786,79	149,50
-784,33	262,14
-781,87	387,07
-779,41	235,52
-776,95	223,23
-774,49	335,87
-772,03	299,00
-769,57	403,45
-767,12	77,82
-764,66	571,38
-762,21	481,27
-759,75	665,59
-757,30	331,77
-754,85	241,66
-752,40	143,36
-749,95	231,42
-747,50	456,70
-745,05	362,49
-742,60	516,09
-740,16	151,55
-737,71	206,84
-735,27	606,20
-732,82	333,82
-730,38	452,60
-727,94	184,32
-725,50	442,36
-723,06	509,94
-720,62	315,39
-718,18	231,42
-715,74	497,66
-713,31	372,73
-710,87	194,56
-708,44	157,69
-706,01	266,24
-703,57	272,38
-701,14	106,49
-698,71	208,89
-696,28	585,72
-693,85	313,34
-691,42	434,17
-689,00	83,97
-686,57	436,22
-684,15	262,14
-681,72	219,13
-679,30	346,11
-676,88	139,26
-674,45	495,61
-672,03	294,91
-669,61	278,52
-667,20	65,53
-664,78	311,29
-662,36	26,62
-659,94	307,20
-657,53	452,60
-655,12	401,40
-652,70	450,55
-650,29	294,91
-647,88	555,00
-645,47	264,19
-643,06	243,71
-640,65	284,67
-638,24	229,37
-635,83	317,44
-633,43	-30,72
-631,02	438,27
-628,62	704,50
-626,22	331,77
-623,81	-1943,52
-621,41	102,40
-619,01	153,60
-616,61	198,65
-614,21	348,15
-611,81	684,02
-609,42	223,23
-607,02	1923,04
-604,63	346,11
-602,23	454,65
-599,84	636,92
-597,45	391,16
-595,05	571,38
-592,66	372,73
-590,27	243,71
-587,88	409,59
-585,50	651,25
-583,11	624,63
-580,72	331,77
-578,34	294,91
-575,95	73,73
-573,57	458,74
-571,19	352,25
-568,80	141,31
-566,42	358,39
-564,04	503,80
-561,66	350,20
-559,29	325,63
-556,91	233,47
-554,53	147,45
-552,16	321,53
-549,78	485,37
-547,41	323,58
-545,03	337,91
-542,66	323,58
-540,29	309,24
-537,92	663,54
-535,55	544,76
-533,18	165,89
-530,81	4,10
-528,45	1785,83
-526,08	317,44
-523,72	331,77
-521,35	280,57
-518,99	651,25
-516,63	299,00
-514,27	462,84
-511,90	360,44
-509,54	634,87
-507,19	237,56
-504,83	651,25
-502,47	608,25
-500,11	585,72
-497,76	397,31
-495,40	376,83
-493,05	327,68
-490,70	301,05
-488,35	382,97
-486,00	385,02
-483,65	380,92
-481,30	741,36
-478,95	524,28
-476,60	438,27
-474,25	507,90
-471,91	579,58
-469,56	444,41
-467,22	563,19
-464,88	559,10
-462,53	495,61
-460,19	536,57
-457,85	798,71
-455,51	325,63
-453,17	-5355,44
-450,84	438,27
-448,50	604,15
-446,16	430,07
-443,83	622,58
-441,49	661,49
-439,16	630,77
-436,83	778,23
-434,50	776,18
-432,16	319,48
-429,83	366,59
-427,50	516,09
-425,18	499,70
-422,85	577,53
-420,52	645,11
-418,20	475,13
-415,87	548,86
-413,55	524,28
-411,22	610,29
-408,90	567,29
-406,58	505,85
-404,26	348,15
-401,94	501,75
-399,62	858,10
-397,30	743,41
-394,99	380,92
-392,67	536,57
-390,35	444,41
-388,04	552,95
-385,73	634,87
-383,41	432,12
-381,10	749,56
-378,79	432,12
-376,48	636,92
-374,17	503,80
-371,86	622,58
-369,55	581,62
-367,25	534,52
-364,94	495,61
-362,64	608,25
-360,33	464,89
-358,03	651,25
-355,73	501,75
-353,42	428,03
-351,12	698,36
-348,82	311,29
-346,52	641,01
-344,23	780,28
-341,93	706,55
-339,63	667,64
-337,34	446,46
-335,04	241,66
-332,75	716,79
-330,45	366,59
-328,16	440,31
-325,87	249,85
-323,58	460,79
-321,29	516,09
-319,00	616,44
-316,71	61,44
-314,42	325,63
-312,14	460,79
-309,85	296,96
-307,57	561,14
-305,28	212,99
-303,00	270,33
-300,72	380,92
-298,44	208,89
-296,16	20,48
-293,88	-92,16
-291,60	-22,53
-289,32	415,74
-287,04	233,47
-284,77	307,20
-282,49	30,72
-280,22	18,43
-277,94	436,22
-275,67	344,06
-273,40	157,69
-271,13	212,99
-268,85	200,70
-266,59	69,63
-264,32	286,72
-262,05	153,60
-259,78	86,01
-257,51	294,91
-255,25	354,30
-252,98	501,75
-250,72	272,38
-248,46	425,98
-246,20	-69,63
-243,93	212,99
-241,67	-393,21
-239,41	309,24
-237,16	225,28
-234,90	-69,63
-232,64	53,25
-230,38	169,98
-228,13	241,66
-225,87	-38,91
-223,62	-34,82
-221,37	266,24
-219,11	378,87
-216,86	264,19
-214,61	249,85
-212,36	321,53
-210,11	460,79
-207,87	120,83
-205,62	8,19
-203,37	292,86
-201,13	129,02
-198,88	337,91
-196,64	446,46
-194,39	192,51
-192,15	231,42
-189,91	129,02
-187,67	466,94
-185,43	16,38
-183,19	278,52
-180,95	200,70
-178,72	219,13
-176,48	376,83
-174,24	262,14
-172,01	178,17
-169,77	-57,34
-167,54	299,00
-165,31	395,26
-163,08	163,84
-160,85	231,42
-158,62	59,39
-156,39	311,29
-154,16	354,30
-151,93	278,52
-149,70	311,29
-147,48	282,62
-145,25	260,09
-143,03	413,69
-140,81	258,04
-138,58	110,59
-136,36	231,42
-134,14	49,15
-131,92	313,34
-129,70	503,80
-127,48	-16,38
-125,26	61,44
-123,05	129,02
-120,83	210,94
-118,62	573,43
-116,40	178,17
-114,19	270,33
-111,97	18,43
-109,76	53,25
-107,55	-135,17
-105,34	145,41
-103,13	-10,24
-100,92	131,07
-98,71	225,28
-96,51	368,63
-94,30	79,87
-92,09	247,80
-89,89	192,51
-87,69	397,31
-85,48	481,27
-83,28	446,46
-81,08	583,67
-78,88	372,73
-76,68	423,93
-74,48	192,51
-72,28	227,32
-70,08	503,80
-67,88	260,09
-65,69	509,94
-63,49	456,70
-61,30	518,14
-59,11	446,46
-56,91	253,95
-54,72	118,78
-52,53	258,04
-50,34	272,38
-48,15	579,58
-45,96	315,39
-43,77	182,27
-41,59	514,04
-39,40	237,56
-37,21	475,13
-35,03	223,23
-32,84	450,55
-30,66	436,22
-28,48	501,75
-26,30	600,05
-24,12	907,25
-21,94	1705,96
-19,76	2566,10
-17,58	5054,39
-15,40	8865,66
-13,22	15130,39
-11,05	21333,69
-8,87	28100,18
-6,70	33560,06
-4,52	40000,93
-2,35	38751,66
-0,18	39923,10
1,99	38127,03
4,16	35919,32
6,33	29474,37
8,50	25757,30
10,67	21462,71
12,84	18181,87
15,00	14438,18
17,17	12758,85
19,33	10225,51
21,50	8042,37
23,66	5975,97
25,83	4968,37
27,99	2992,08
30,15	2242,53
32,31	1353,71
34,47	823,28
36,63	933,87
38,79	626,68
40,94	397,31
43,10	460,79
45,25	309,24
47,41	440,31
49,56	444,41
51,72	81,92
53,87	0,00
56,02	493,56
58,17	333,82
60,32	-81,92
62,47	75,77
64,62	176,13
66,77	288,76
68,92	196,60
71,06	292,86
73,21	280,57
75,35	307,20
77,50	448,51
79,64	415,74
81,78	135,17
83,92	276,48
86,06	462,84
88,20	241,66
90,34	458,74
92,48	282,62
94,62	239,61
96,76	141,31
98,89	337,91
101,03	307,20
103,16	358,39
105,30	333,82
107,43	681,97
109,56	47,10
111,69	198,65
113,82	288,76
115,95	411,64
118,08	202,75
120,21	395,26
122,34	354,30
124,47	233,47
126,59	458,75
128,72	163,84
130,84	323,58
132,97	200,70
135,09	63,49
137,21	317,44
139,33	133,12
141,45	401,40
143,57	204,80
145,69	172,03
147,81	225,28
149,93	784,37
152,05	276,48
154,16	741,36
156,28	131,07
158,39	104,45
160,51	466,94
162,62	380,92
164,73	325,63
166,85	385,02
168,96	292,86
171,07	292,86
173,18	204,80
175,28	309,24
177,39	22,53
179,50	86,01
181,61	485,37
183,71	346,11
185,82	458,75
187,92	104,45
190,02	307,20
192,13	354,30
194,23	405,50
196,33	321,53
198,43	524,28
200,53	296,96
202,63	296,96
204,72	159,74
206,82	237,56
208,92	-8,19
211,01	237,56
213,11	172,03
215,20	301,05
217,30	141,31
219,39	88,06
221,48	604,15
223,57	57,34
225,66	430,07
227,75	131,07
229,84	526,33
231,93	491,51
234,02	421,88
236,10	208,89
238,19	352,25
240,28	221,18
242,36	520,18
244,44	325,63
246,53	339,96
248,61	737,27
250,69	552,95
252,77	714,74
254,85	751,60
256,93	960,50
259,01	743,41
261,09	1130,48
263,16	1046,51
265,24	1226,73
267,32	1435,63
269,39	1693,67
271,46	1628,14
273,54	1906,66
275,61	1843,17
277,68	2129,89
279,75	2199,52
281,82	2138,08
283,89	2355,16
285,96	2140,13
288,03	2066,40
290,10	2176,99
292,16	2545,63
294,23	2127,84
296,29	2340,83
298,36	2324,44
300,42	2162,65
302,49	2125,79
304,55	2234,33
306,61	2084,83
308,67	675,83
310,73	2181,09
312,79	2131,94
314,85	2445,27
316,90	2095,07
318,96	2242,53
321,02	2336,73
323,07	2328,54
325,13	1972,19
327,18	1947,62
329,24	2131,94
331,29	2021,35
333,34	2220,00
335,39	2111,46
337,44	2107,36
339,49	2066,40
341,54	2166,75
343,59	1818,60
345,64	2174,94
347,68	2164,70
349,73	1783,78
351,77	1923,04
353,82	2029,54
355,86	1935,33
357,90	2054,11
359,95	1748,97
361,99	2133,98
364,03	2191,33
366,07	2101,22
368,11	2052,06
370,15	2172,89
372,19	2103,26
374,22	2510,81
376,26	1959,91
378,29	2181,09
380,33	1943,52
382,36	2072,54
384,40	1978,34
386,43	1005,55
388,46	2170,85
390,49	2238,43
392,52	1718,25
394,55	2248,67
396,58	2103,26
398,61	2222,05
400,64	2369,50
402,67	2203,61
404,69	2326,49
406,72	2662,36
408,74	2670,55
410,77	2691,03
412,79	2652,12
414,81	2727,89
416,84	2936,79
418,86	3098,58
420,88	2895,83
422,90	3321,81
424,92	3192,78
426,94	3295,18
428,95	3485,64
430,97	3610,57
432,99	3645,38
435,00	3612,62
437,02	3741,64
439,03	3760,07
441,04	3448,78
443,06	3749,83
445,07	3143,63
447,08	3305,42
449,09	3436,49
451,10	3223,50
453,11	3063,76
455,12	2895,83
457,13	2574,30
459,13	2572,25
461,14	2764,76
463,14	2680,79
465,15	2613,21
467,15	2682,84
469,16	2621,40
471,16	2260,96
473,16	2465,75
475,16	2592,73
477,16	2379,74
479,16	2619,35
481,16	2826,20
483,16	2490,33
485,16	2375,64
487,15	2441,18
489,15	2584,54
491,15	2258,91
493,14	2523,10
495,14	2672,60
497,13	2254,81
499,12	2564,06
501,11	2338,78
503,11	2199,52
505,10	2342,88
507,09	2207,71
509,07	2125,79
511,06	2033,63
513,05	2039,78
515,04	2004,96
517,02	2095,07
519,01	2142,18
521,00	1781,73
522,98	2197,47
524,96	2248,67
526,95	2226,14
528,93	2062,30
530,91	2252,77
532,89	2166,75
534,87	2052,06
536,85	952,31
538,83	1708,01
540,81	2144,22
542,78	2076,64
544,76	1959,91
546,74	2080,74
548,71	2017,25
550,69	2238,43
552,66	2316,25
554,63	2045,92
556,60	2131,94
558,58	1984,48
560,55	1855,46
562,52	2035,68
564,49	2228,19
566,46	2383,84
568,42	2136,03
570,39	1916,90
572,36	2129,89
574,32	1787,88
576,29	2162,65
578,25	2508,76
580,22	2013,15
582,18	2086,88
584,14	2076,64
586,11	2043,87
588,07	1894,37
590,03	2009,06
591,99	1798,12
593,95	2029,54
595,90	2050,02
597,86	1920,99
599,82	2021,35
601,78	1888,23
603,73	2019,30
605,69	1941,47
607,64	2023,39
609,59	2064,35
611,55	1785,83
613,50	1597,42
615,45	1845,22
617,40	1894,37
619,35	2060,26
621,30	2041,82
623,25	2340,83
625,20	1986,53
627,15	2383,84
629,09	2176,99
631,04	1742,82
632,98	2107,36
634,93	1920,99
636,87	1920,99
638,82	1855,46
640,76	1865,70
642,70	1964,00
644,64	2025,44
646,58	1970,15
648,52	2090,98
650,46	1970,15
652,40	1865,70
654,34	1841,12
656,27	1875,94
658,21	2062,30
660,15	1896,42
662,08	2090,98
664,02	1873,89
665,95	1857,51
667,88	2002,91
669,82	1920,99
671,75	2074,59
673,68	2050,02
675,61	1896,42
677,54	1892,32
679,47	2121,70
681,40	1892,32
683,32	2136,03
685,25	1667,05
687,18	1845,22
689,10	1888,23
691,03	2007,01
692,95	1834,98
694,87	1839,08
696,80	1660,90
698,72	1791,97
700,64	1966,05
702,56	1935,33
704,48	1847,27
706,40	1933,28
708,32	1996,77
710,24	1906,66
712,16	1603,56
714,07	1951,71
715,99	2133,98
717,90	1753,06
719,82	1624,04
721,73	1953,76
723,65	2029,54
725,56	1845,22
727,47	1726,44
729,38	1806,31
731,29	1935,33
733,20	1832,93
735,11	1841,12
737,02	1939,43
738,93	1847,27
740,84	1972,19
742,74	1904,61
744,65	1765,35
746,55	1896,42
748,46	1734,63
750,36	2090,98
752,27	1785,83
754,17	1959,91
756,07	1925,09
757,97	2072,54
759,87	2062,30
761,77	1994,72
763,67	1927,14
765,57	1863,65
767,47	2158,56
769,37	2025,44
771,26	2144,22
773,16	1984,48
775,06	2265,05
776,95	2019,30
778,84	2195,42
780,74	1759,21
782,63	2025,44
784,52	1800,16
786,41	2113,50
788,30	1853,41
790,19	2052,06
792,08	1886,18
793,97	1910,75
795,86	2047,97
797,75	2207,71
799,63	2117,60
801,52	1869,80
803,41	1636,33
805,29	2260,96
807,18	1923,04
809,06	2158,56
810,94	2396,12
812,82	2334,68
814,70	2273,25
816,59	2234,33
818,47	2246,62
820,35	2064,35
822,22	2236,38
824,10	2486,23
825,98	2007,01
827,86	2052,06
829,73	2396,12
831,61	2209,76
833,48	2232,29
835,36	2396,12
837,23	2289,63
839,10	2492,38
840,98	2336,73
842,85	2605,02
844,72	2445,27
846,59	2381,79
848,46	2543,58
850,33	2832,34
852,20	2568,15
854,06	3256,27
855,93	3454,92
857,80	3551,18
859,66	4122,56
861,53	4743,10
863,39	4913,08
865,26	6426,53
867,12	6748,06
868,98	9172,85
870,84	11022,17
872,71	12535,62
874,57	13461,30
876,43	15220,50
878,29	15441,68
880,14	16525,06
882,00	16152,33
883,86	15163,16
885,72	14577,44
887,57	12070,73
889,43	11396,95
891,28	10033,00
893,14	8660,86
894,99	7978,89
896,84	6676,38
898,69	5623,72
900,55	4911,03
902,40	4356,03
904,25	3710,92
906,10	3551,18
907,95	3778,50
909,79	3076,05
911,64	2861,01
913,49	2701,27
915,34	2717,65
917,18	2484,19
919,03	2281,44
920,87	2224,09
922,71	2181,09
924,56	2287,58
926,40	2064,35
928,24	2295,77
930,08	2154,46
931,92	2152,42
933,76	2226,14
935,60	1986,53
937,44	2285,53
939,28	1972,19
941,12	2402,27
942,95	1789,92
944,79	1810,40
946,62	2117,60
948,46	1986,53
950,29	1953,76
952,13	1812,45
953,96	1656,81
955,79	1693,67
957,62	1968,10
959,46	1689,57
961,29	1724,39
963,12	1675,24
964,94	1816,55
966,77	1744,87
968,60	1931,23
970,43	1994,72
972,25	2125,79
974,08	1912,80
975,91	1705,96
977,73	1644,52
979,55	1599,46
981,38	1736,68
983,20	1902,56
985,02	1789,92
986,84	1847,27
988,66	1687,53
990,49	2107,36
992,30	1810,40
994,12	2228,19
995,94	1662,95
997,76	1974,24
999,58	1894,37
1001,39	1415,15
1003,21	2146,27
1005,02	1902,56
1006,84	1980,39
1008,65	2371,55
1010,47	2283,49
1012,28	2271,20
1014,09	2148,32
1015,90	2381,79
1017,71	2435,03
1019,52	2535,39
1021,33	1535,98
1023,14	2725,85
1024,95	2662,36
1026,76	2607,06
1028,56	3227,60
1030,37	3157,97
1032,18	3518,41
1033,98	3542,99
1035,79	3856,33
1037,59	4429,76
1039,39	4577,21
1041,20	4927,41
1043,00	5146,55
1044,80	5156,79
1046,60	5574,57
1048,40	5537,71
1050,20	5521,32
1052,00	5531,56
1053,80	4865,97
1055,59	4736,95
1057,39	5076,91
1059,19	5009,33
1060,98	4380,61
1062,78	4235,20
1064,57	4644,79
1066,37	4356,03
1068,16	4943,80
1069,95	4646,84
1071,75	5259,18
1073,54	5509,04
1075,33	5717,93
1077,12	6043,56
1078,91	6068,13
1080,70	6164,39
1082,48	6889,37
1084,27	6762,39
1086,06	7186,32
1087,85	6821,78
1089,63	6918,04
1091,42	6956,95
1093,20	6487,96
1094,99	5994,40
1096,77	6092,71
1098,55	5509,04
1100,33	5029,81
1102,12	4724,66
1103,90	4415,42
1105,68	4081,60
1107,46	3688,39
1109,24	3995,59
1111,01	3559,37
1112,79	3536,84
1114,57	3395,53
1116,35	3231,69
1118,12	3074,00
1119,90	2975,70
1121,67	2869,20
1123,45	3004,37
1125,22	2891,73
1126,99	2752,47
1128,77	2697,17
1130,54	2758,61
1132,31	2523,10
1134,08	2768,85
1135,85	2916,31
1137,62	2602,97
1139,39	2414,56
1141,15	2234,33
1142,92	1865,70
1144,69	2224,09
1146,46	2082,78
1148,22	2398,17
1149,99	2142,18
1151,75	1990,63
1153,51	2236,38
1155,28	1847,27
1157,04	1957,86
1158,80	2308,06
1160,56	1978,34
1162,32	2029,54
1164,08	1877,99
1165,84	1677,29
1167,60	1988,58
1169,36	1869,80
1171,12	2076,64
1172,88	1920,99
1174,63	1951,71
1176,39	1920,99
1178,14	1830,88
1179,90	1857,51
1181,65	2113,50
1183,41	1982,43
1185,16	1904,61
1186,91	1976,29
1188,66	1798,12
1190,41	2201,57
1192,16	1550,31
1193,91	2009,06
1195,66	1617,90
1197,41	1671,14
1199,16	1994,72
1200,91	1888,23
1202,66	1597,42
1204,40	2025,44
1206,15	1705,96
1207,89	1896,42
1209,64	1593,32
1211,38	1726,44
1213,12	1783,78
1214,87	1574,89
1216,61	1568,74
1218,35	1918,95
1220,09	1890,28
1221,83	1787,88
1223,57	1904,61
1225,31	1814,50
1227,05	1978,34
1228,79	1607,66
1230,52	2056,16
1232,26	2195,42
1234,00	1834,98
1235,73	1830,88
1237,47	1929,19
1239,20	1918,95
1240,94	1906,66
1242,67	2009,06
1244,40	1857,51
1246,13	2105,31
1247,86	2041,82
1249,60	1996,77
1251,33	2152,42
1253,06	2256,86
1254,78	2371,55
1256,51	2365,40
1258,24	2514,91
1259,97	2607,06
1261,69	2369,50
1263,42	2480,09
1265,15	2992,08
1266,87	3121,10
1268,59	3039,19
1270,32	2848,72
1272,04	3119,06
1273,76	3215,31
1275,49	3602,38
1277,21	3477,45
1278,93	3622,86
1280,65	3712,97
1282,37	3243,98
1284,09	3313,61
1285,81	3420,11
1287,52	3575,75
1289,24	3164,11
1290,96	3110,86
1292,67	2729,94
1294,39	3014,61
1296,10	2697,17
1297,82	2549,72
1299,53	2357,21
1301,24	2447,32
1302,96	2459,61
1304,67	2465,75
1306,38	2402,27
1308,09	2220,00
1309,80	2154,46
1311,51	2246,62
1313,22	2224,09
1314,93	1783,78
1316,64	2086,88
1318,34	2004,96
1320,05	1849,32
1321,75	1824,74
1323,46	2199,52
1325,17	1902,56
1326,87	2195,42
1328,57	1849,32
1330,28	1857,51
1331,98	2088,93
1333,68	2017,25
1335,38	2115,55
1337,08	2060,26
1338,78	2101,22
1340,48	1986,53
1342,18	1945,57
1343,88	2021,35
1345,58	1843,17
1347,28	2201,57
1348,97	1810,40
1350,67	2021,35
1352,36	2154,46
1354,06	2328,54
1355,75	2123,74
1357,45	2140,13
1359,14	2027,49
1360,83	2207,71
1362,53	2240,48
1364,22	2263,01
1365,91	2187,23
1367,60	2125,79
1369,29	2187,23
1370,98	2320,35
1372,67	2418,65
1374,35	2136,03
1376,04	2557,91
1377,73	2727,89
1379,41	2385,88
1381,10	2441,18
1382,79	2887,64
1384,47	2697,17
1386,15	2537,43
1387,84	2562,01
1389,52	2512,86
1391,20	2568,15
1392,88	2277,34
1394,57	2666,46
1396,25	2818,00
1397,93	2600,92
1399,61	2828,24
1401,28	2643,93
1402,96	2752,47
1404,64	3063,76
1406,32	2940,88
1407,99	2768,85
1409,67	3160,02
1411,35	3047,38
1413,02	2981,84
1414,70	3207,12
1416,37	3252,17
1418,04	3246,03
1419,71	3035,09
1421,39	3266,51
1423,06	3366,86
1424,73	3229,65
1426,40	3246,03
1428,07	3399,63
1429,74	3698,63
1431,41	3741,64
1433,08	3577,80
1434,74	3676,10
1436,41	4022,21
1438,08	4231,10
1439,74	4581,31
1441,41	4564,92
1443,07	5234,61
1444,74	5390,25
1446,40	6309,79
1448,06	6422,43
1449,72	7026,58
1451,39	7026,58
1453,05	7384,98
1454,71	7477,13
1456,37	7286,67
1458,03	6834,07
1459,69	7307,15
1461,35	7276,43
1463,00	6576,03
1464,66	5965,73
1466,32	5296,05
1467,97	5035,96
1469,63	4642,75
1471,28	4816,82
1472,94	4104,13
1474,59	4413,37
1476,25	4249,54
1477,90	4040,64
1479,55	4124,61
1481,20	3811,27
1482,85	3870,66
1484,50	3434,44
1486,15	3743,69
1487,80	3657,67
1489,45	3405,77
1491,10	3563,47
1492,75	3307,47
1494,40	3295,18
1496,04	3227,60
1497,69	3174,35
1499,33	2920,40
1500,98	2805,72
1502,62	2676,70
1504,27	2744,28
1505,91	2525,15
1507,55	2652,12
1509,19	2314,20
1510,84	2512,86
1512,48	2226,14
1514,12	2400,22
1515,76	1998,82
1517,40	2381,79
1519,04	2242,53
1520,67	2369,50
1522,31	2248,67
1523,95	1597,42
1525,59	2158,56
1527,22	2072,54
1528,86	1920,99
1530,49	2088,93
1532,13	1939,43
1533,76	1988,58
1535,39	1892,32
1537,03	-3964,87
1538,66	2131,94
1540,29	1845,22
1541,92	2062,30
1543,55	2215,90
1545,18	2176,99
1546,81	1777,64
1548,44	2019,30
1550,07	2166,75
1551,70	2162,65
1553,32	1957,86
1554,95	2035,68
1556,58	1779,68
1558,20	1980,39
1559,83	2097,12
1561,45	1908,71
1563,07	1822,69
1564,70	1873,89
1566,32	1581,03
1567,94	2007,01
1569,56	1535,98
1571,19	1908,71
1572,81	2090,98
1574,43	1765,35
1576,05	1841,12
1577,66	1947,62
1579,28	1699,81
1580,90	1607,66
1582,52	962,55
1584,14	1785,83
1585,75	2099,17
1587,37	1791,97
1588,98	1853,41
1590,60	1990,63
1592,21	1660,90
1593,82	1499,11
1595,44	1724,39
1597,05	1906,66
1598,66	1728,49
1600,27	1255,40
1601,88	1671,14
1603,49	997,36
1605,10	1738,73
1606,71	1771,49
1608,32	1785,83
1609,93	1859,56
1611,54	1830,88
1613,14	1628,14
1614,75	1953,76
1616,36	1869,80
1617,96	1820,64
1619,57	1957,86
1621,17	1730,53
1622,77	1501,16
1624,38	1984,48
1625,98	1665,00
1627,58	1771,49
1629,18	2072,54
1630,78	1798,12
1632,38	1499,11
1633,98	2052,06
1635,58	1736,68
1637,18	2000,87
1638,78	2009,06
1640,38	2013,15
1641,98	1753,06
1643,57	2019,30
1645,17	2078,69
1646,76	2117,60
1648,36	1531,88
1649,95	2052,06
1651,55	1880,04
1653,14	1726,44
1654,73	1728,49
1656,33	2015,20
1657,92	1732,58
1659,51	1841,12
1661,10	1738,73
1662,69	1896,42
1664,28	1920,99
1665,87	1943,52
1667,46	1998,82
1669,05	2176,99
1670,63	1849,32
1672,22	1431,53
1673,81	1476,59
1675,39	1732,58
1676,98	1763,30
1678,56	1466,35
1680,15	1861,60
1681,73	1806,31
1683,31	1597,42
1684,90	1703,91
1686,48	1841,12
1688,06	1624,04
1689,64	1472,49
1691,22	1742,82
1692,80	1677,29
1694,38	1538,02
1695,96	1937,38
1697,54	1902,56
1699,12	1509,35
1700,69	1830,88
1702,27	1626,09
1703,85	1564,65
1705,42	1382,38
1707,00	1525,74
1708,57	1556,46
1710,15	1208,30
1711,72	1310,70
1713,29	1554,41
1714,87	1425,39
1716,44	1452,01
1718,01	1417,19
1719,58	1492,97
1721,15	1529,83
1722,72	1525,74
1724,29	1343,47
1725,86	1474,54
1727,43	1548,26
1729,00	1322,99
1730,56	1521,64
1732,13	1157,10
1733,70	1511,40
1735,26	1468,39
1736,83	1589,22
1738,39	1177,58
1739,96	1757,16
1741,52	1609,70
1743,08	1413,10
1744,65	1142,77
1746,21	1572,84
1747,77	1544,17
1749,33	1282,03
1750,89	1066,99
1752,45	1533,93
1754,01	1214,45
1755,57	1224,69
1757,13	1288,17
1758,69	1492,97
1760,24	1357,80
1761,80	1124,33
1763,36	1140,72
1764,91	1454,06
1766,47	1333,23
1768,02	1421,29
1769,58	1116,14
1771,13	1423,34
1772,68	1351,66
1774,24	1380,33
1775,79	1132,53
1777,34	1103,86
1778,89	1409,00
1780,44	1189,87
1781,99	1165,29
1783,54	1411,05
1785,09	1167,34
1786,64	1312,75
1788,19	1191,92
1789,73	989,17
1791,28	1138,67
1792,83	1243,12
1794,37	1169,39
1795,92	1132,53
1797,46	1187,82
1799,01	1241,07
1800,55	1347,56
1802,09	1296,36
1803,64	1359,85
1805,18	1363,95
1806,72	1175,53
1808,26	1046,51
1809,80	1372,14
1811,34	1091,57
1812,88	1234,93
1814,42	1210,35
1815,96	1183,73
1817,50	1298,41
1819,04	1372,14
1820,57	1234,93
1822,11	1032,18
1823,65	1456,11
1825,18	1366,00
1826,72	1224,69
1828,25	1198,06
1829,78	1263,60
1831,32	1208,30
1832,85	1206,25
1834,38	1177,58
1835,92	1255,40
1837,45	1114,09
1838,98	1269,74
1840,51	1249,26
1842,04	1099,76
1843,57	1247,21
1845,10	1286,12
1846,62	1234,93
1848,15	907,25
1849,68	1257,45
1851,21	1734,63
1852,73	1081,33
1854,26	1083,38
1855,78	1382,38
1857,31	1304,56
1858,83	1116,14
1860,36	1495,02
1861,88	911,35
1863,40	1576,94
1864,92	1218,54
1866,45	665,59
1867,97	940,02
1869,49	1077,23
1871,01	913,39
1872,53	1155,05
1874,05	1312,75
1875,57	1136,62
1877,08	1165,29
1878,60	923,63
1880,12	1325,04
1881,64	1107,95
1883,15	966,64
1884,67	1308,65
1886,18	1214,45
1887,70	1173,49
1889,21	1036,27
1890,72	1327,08
1892,24	1019,89
1893,75	886,77
1895,26	1179,63
1896,77	1091,57
1898,28	974,83
1899,79	1060,85
1901,30	1286,12
1902,81	933,87
1904,32	1107,95
1905,83	1167,34
1907,34	1136,62
1908,85	1150,96
1910,35	1110,00
1911,86	1271,79
1913,37	1167,34
1914,87	1200,11
1916,38	1228,78
1917,88	1234,93
1919,39	1150,96
1920,89	1249,26
1922,39	958,45
1923,89	1193,97
1925,40	1142,77
1926,90	819,19
1928,40	1269,74
1929,90	1218,54
1931,40	989,17
1932,90	987,12
1934,40	1153,01
1935,90	1103,86
1937,39	1234,93
1938,89	1333,23
1940,39	1298,41
1941,89	1183,73
1943,38	1173,49
1944,88	581,62
1946,37	1189,87
1947,87	1271,79
1949,36	1175,53
1950,85	1075,18
1952,35	1081,33
1953,84	944,11
1955,33	1034,22
1956,82	897,01
1958,31	849,91
1959,80	1351,66
1961,29	1148,91
1962,78	1064,94
1964,27	1140,72
1965,76	1116,14
1967,25	1198,06
1968,74	1206,25
1970,22	899,06
1971,71	1013,74
1973,20	1081,33
1974,68	1060,85
1976,17	757,75
1977,65	1310,70
1979,14	995,31
1980,62	1282,03
1982,10	1191,92
1983,58	1130,48
1985,07	1132,53
1986,55	1077,23
1988,03	2093,02
1989,51	1101,81
1990,99	1062,90
1992,47	1056,75
1993,95	944,11
1995,43	1034,22
1996,91	1079,28
1998,38	1339,37
1999,86	1329,13
2001,34	1210,35
2002,81	1021,94
2004,29	1028,08
2005,76	1130,48
2007,24	1085,42
2008,71	970,74
2010,19	1249,26
2011,66	909,30
2013,13	894,96
2014,60	1064,94
2016,08	968,69
2017,55	1130,48
2019,02	1083,38
2020,49	1290,22
2021,96	921,59
2023,43	1392,62
2024,90	1021,94
2026,36	991,22
2027,83	825,33
2029,30	1023,98
2030,77	1114,10
2032,23	1206,25
2033,70	1048,56
2035,16	948,21
2036,63	1239,02
2038,09	1200,11
2039,56	1263,60
2041,02	1099,76
2042,48	1175,53
2043,95	1034,22
2045,41	1218,54
2046,87	813,04
2048,33	1200,11
2049,79	759,80
2051,25	876,53
2052,71	1132,53
2054,17	1083,38
2055,63	894,96
2057,09	1034,22
2058,54	1011,70
2060,00	976,88
2061,46	1216,49
2062,91	1138,67
2064,37	1144,81
2065,82	1150,96
2067,28	1325,04
2068,73	890,87
2070,19	1112,05
2071,64	1155,05
2073,09	1060,85
2074,54	1159,15
2076,00	1261,55
2077,45	1026,03
2078,90	1099,76
2080,35	1167,34
2081,80	948,21
2083,25	1087,47
2084,70	1290,22
2086,14	1087,47
2087,59	962,55
2089,04	1107,95
2090,49	1255,40
2091,93	954,35
2093,38	1185,77
2094,83	1103,86
2096,27	1155,05
2097,71	1097,71
2099,16	927,73
2100,60	1073,14
2102,05	1359,85
2103,49	1245,16
2104,93	991,22
2106,37	1196,01
2107,81	1009,65
2109,25	1103,86
2110,69	1232,88
2112,13	1071,09
2113,57	1040,37
2115,01	860,15
2116,45	1028,08
2117,89	1038,32
2119,33	1159,15
2120,76	952,31
2122,20	915,44
2123,63	913,39
2125,07	1189,87
2126,51	946,16
2127,94	1011,70
2129,37	1099,76
2130,81	1085,42
2132,24	1216,49
2133,67	991,22
2135,11	1259,50
2136,54	968,69
2137,97	950,26
2139,40	1148,91
2140,83	1388,52
2142,26	937,97
2143,69	1054,70
2145,12	1069,04
2146,55	1050,61
2147,97	964,59
2149,40	954,35
2150,83	849,91
2152,25	1202,16
2153,68	1019,89
2155,11	1316,84
2156,53	1255,40
2157,96	1134,57
2159,38	1388,52
2160,80	1048,56
2162,23	1120,24
2163,65	802,80
2165,07	1026,03
2166,49	993,26
2167,91	997,36
2169,33	835,57
2170,75	649,21
2172,17	1198,06
2173,59	1034,22
2175,01	980,98
2176,43	1054,70
2177,85	1322,99
2179,27	796,66
2180,68	1196,01
2182,10	1081,33
2183,52	925,68
2184,93	1077,23
2186,35	-837,62
2187,76	958,45
2189,18	952,31
2190,59	935,92
2192,00	999,41
2193,42	858,10
2194,83	1112,05
2196,24	1001,46
2197,65	739,32
2199,06	3858,37
2200,47	886,77
2201,88	677,88
2203,29	878,58
2204,70	964,59
2206,11	1007,60
2207,52	1017,84
2208,93	866,29
2210,33	997,36
2211,74	686,07
2213,15	972,79
2214,55	962,55
2215,96	1273,84
2217,36	1034,22
2218,77	702,45
2220,17	858,10
2221,57	727,03
2222,98	1028,08
2224,38	811,00
2225,78	1011,70
2227,18	780,28
2228,58	1015,79
2229,99	886,77
2231,39	874,48
2232,79	759,80
2234,18	1048,56
2235,58	868,34
2236,98	974,83
2238,38	845,81
2239,78	817,14
2241,17	1005,55
2242,57	1040,37
2243,97	870,39
2245,36	1214,45
2246,76	921,59
2248,15	929,78
2249,55	641,01
2250,94	925,68
2252,33	825,33
2253,73	1083,38
2255,12	956,40
2256,51	931,83
2257,90	894,96
2259,29	821,24
2260,68	919,54
2262,07	997,36
2263,46	696,31
2264,85	712,69
2266,24	956,40
2267,63	479,22
2269,02	1052,66
2270,40	927,73
2271,79	825,33
2273,18	1243,12
2274,56	823,28
2275,95	847,86
2277,33	860,15
2278,72	1087,47
2280,10	862,19
2281,49	1150,96
2282,87	1069,04
2284,25	829,43
2285,63	845,81
2287,02	958,45
2288,40	976,88
2289,78	919,54
2291,16	864,24
2292,54	985,07
2293,92	772,08
2295,30	1159,15
2296,68	647,16
2298,05	894,96
2299,43	880,63
2300,81	933,87
2302,19	667,64
2303,56	669,69
2304,94	688,12
2306,31	854,00
2307,69	831,48
2309,06	1046,51
2310,44	995,31
2311,81	894,96
2313,19	966,64
2314,56	804,85
2315,93	882,67
2317,30	817,14
2318,67	909,30
2320,04	970,74
2321,41	849,91
2322,78	772,08
2324,15	905,20
2325,52	770,04
2326,89	798,71
2328,26	815,09
2329,63	870,39
2331,00	843,76
2332,36	753,65
2333,73	954,35
2335,09	825,33
2336,46	1120,24
2337,83	552,95
2339,19	614,39
2340,55	731,12
2341,92	1032,18
2343,28	907,25
2344,64	1034,22
2346,01	700,41
2347,37	933,87
2348,73	524,28
2350,09	749,56
2351,45	864,24
2352,81	645,11
2354,17	33529,34
2355,53	1011,70
2356,89	870,39
2358,25	684,02
2359,61	692,21
2360,96	786,42
2362,32	837,62
2363,68	753,65
2365,03	874,48
2366,39	1138,67
2367,74	684,02
2369,10	856,05
2370,45	976,88
2371,81	980,98
2373,16	655,35
2374,51	788,47
2375,86	765,94
2377,22	899,06
2378,57	497,66
2379,92	788,47
2381,27	759,80
2382,62	743,41
2383,97	671,73
2385,32	1099,76
2386,67	772,08
2388,02	894,96
2389,37	774,13
2390,71	976,88
2392,06	980,98
2393,41	888,82
2394,75	899,06
2396,10	1081,33
2397,44	710,65
2398,79	849,91
2400,13	772,08
2401,48	841,72
2402,82	839,67
2404,17	1081,33
2405,51	643,06
2406,85	968,69
2408,19	831,48
2409,53	540,66
2410,87	821,24
2412,22	450,55
2413,56	555,00
2414,89	1073,14
2416,23	1519,59
2417,57	694,26
2418,91	913,39
2420,25	899,06
2421,59	1017,84
2422,92	835,57
2424,26	884,72
2425,60	765,94
2426,93	892,91
2428,27	858,10
2429,60	841,72
2430,94	886,77
2432,27	815,09
2433,60	1030,13
2434,94	899,06
2436,27	1011,70
2437,60	860,15
2438,93	526,33
2440,27	841,72
2441,60	972,79
2442,93	714,74
2444,26	995,31
2445,59	612,34
2446,92	784,37
2448,24	767,99
2449,57	876,53
2450,90	890,87
2452,23	456,70
2453,55	921,59
2454,88	788,47
2456,21	661,49
2457,53	747,51
2458,86	880,63
2460,18	688,12
2461,51	958,45
2462,83	778,23
2464,15	712,69
2465,48	786,42
2466,80	823,28
2468,12	327,67
2469,44	817,14
2470,76	690,17
2472,09	937,97
2473,41	425,98
2474,73	854,00
2476,05	761,84
2477,36	954,35
2478,68	581,62
2480,00	837,62
2481,32	849,91
2482,64	921,59
2483,95	790,52
2485,27	1032,18
2486,59	790,52
2487,90	882,67
2489,22	751,60
2490,53	823,28
2491,85	1056,75
2493,16	821,24
2494,47	847,86
2495,79	624,63
2497,10	712,69
2498,41	686,07
2499,72	690,17
2501,03	825,33
2502,35	655,35
2503,66	708,60
2504,97	880,63
2506,28	796,66
2507,59	872,43
2508,89	425,98
2510,20	862,19
2511,51	647,16
2512,82	913,39
2514,12	-65,53
2515,43	833,52
2516,74	731,12
2518,04	491,51
2519,35	886,77
2520,65	780,28
2521,96	1028,08
2523,26	862,19
2524,57	589,81
2525,87	866,29
2527,17	794,61
2528,47	868,34
2529,78	831,48
2531,08	747,51
2532,38	1218,54
2533,68	999,41
2534,98	925,68
2536,28	999,41
2537,58	944,11
2538,88	980,98
2540,18	862,19
2541,47	1019,89
2542,77	960,50
2544,07	782,32
2545,37	845,81
2546,66	894,96
2547,96	1050,61
2549,25	-395,26
2550,55	813,04
2551,84	878,58
2553,14	700,41
2554,43	890,87
2555,72	899,06
2557,02	804,85
2558,31	856,05
2559,60	786,42
2560,89	980,98
2562,18	1046,51
2563,48	1044,46
2564,77	749,56
2566,06	1052,66
2567,35	915,44
2568,63	880,63
2569,92	956,40
2571,21	1093,62
2572,50	555,00
2573,79	1114,10
2575,07	940,02
2576,36	899,06
2577,65	718,84
2578,93	987,12
2580,22	1232,88
2581,50	1066,99
2582,79	1030,13
2584,07	839,67
2585,36	978,93
2586,64	684,02
2587,92	944,11
2589,20	677,88
2590,49	790,52
2591,77	980,98
2593,05	784,37
2594,33	557,05
2595,61	1021,94
2596,89	778,23
2598,17	1013,74
2599,45	788,47
2600,73	749,56
2602,00	919,54
2603,28	835,57
2604,56	1026,03
2605,84	821,24
2607,11	847,86
2608,39	825,33
2609,67	1050,61
2610,94	1001,46
2612,22	845,81
2613,49	522,23
2614,76	589,82
2616,04	778,23
2617,31	714,74
2618,58	894,96
2619,86	839,67
2621,13	1009,65
2622,40	759,80
2623,67	827,38
2624,94	518,14
2626,21	841,72
2627,48	727,03
2628,75	1048,56
2630,02	866,29
2631,29	671,73
2632,56	909,30
2633,82	686,07
2635,09	974,83
2636,36	1042,42
2637,63	823,28
2638,89	927,73
2640,16	1132,53
2641,42	745,46
2642,69	1064,94
2643,95	948,21
2645,22	862,19
2646,48	892,91
2647,74	1054,70
2649,01	831,48
2650,27	858,10
2651,53	628,73
2652,79	888,82
2654,05	911,35
2655,31	925,68
2656,57	888,82
2657,83	655,35
2659,09	1179,63
2660,35	815,09
2661,61	1107,95
2662,87	2064,35
2664,13	1079,28
2665,38	1017,84
2666,64	968,69
2667,90	815,09
2669,15	1042,42
2670,41	739,32
2671,67	872,43
2672,92	1021,94
2674,17	921,59
2675,43	1294,32
2676,68	1103,86
2677,94	1114,09
2679,19	1290,22
2680,44	1011,70
2681,69	962,55
2682,95	1216,49
2684,20	1187,82
2685,45	1314,80
2686,70	1202,16
2687,95	1130,48
2689,20	1312,75
2690,45	1368,04
2691,70	1390,57
2692,94	1181,68
2694,19	1218,54
2695,44	1333,23
2696,69	1263,60
2697,93	1257,45
2699,18	1742,82
2700,43	1583,08
2701,67	1818,60
2702,92	1812,45
2704,16	1916,90
2705,41	2146,27
2706,65	1904,61
2707,89	1830,88
2709,14	2017,25
2710,38	2013,15
2711,62	2531,29
2712,86	2332,64
2714,11	2187,23
2715,35	2580,44
2716,59	2303,96
2717,83	2240,48
2719,07	2217,95
2720,31	2631,64
2721,55	3096,53
2722,78	2787,29
2724,02	2760,66
2725,26	3000,27
2726,50	2772,95
2727,73	2508,76
2728,97	2975,70
2730,21	2680,79
2731,44	2666,46
2732,68	2625,50
2733,91	2564,06
2735,15	2668,50
2736,38	2500,57
2737,62	2613,21
2738,85	2551,77
2740,08	2260,96
2741,32	2695,13
2742,55	2308,06
2743,78	2400,22
2745,01	2271,20
2746,24	2443,23
2747,47	2400,22
2748,70	1230,83
2749,93	2398,17
2751,16	2717,65
2752,39	2652,12
2753,62	2598,87
2754,85	2418,65
2756,08	2551,77
2757,30	2432,99
2758,53	2269,15
2759,76	2392,03
2760,98	2559,96
2762,21	2396,12
2763,43	2080,74
2764,66	2318,30
2765,88	2103,26
2767,11	2375,64
2768,33	2222,05
2769,55	2144,22
2770,78	1447,91
2772,00	1986,53
2773,22	1949,67
2774,44	2170,85
2775,67	2131,94
2776,89	1947,62
2778,11	1849,32
2779,33	2037,73
2780,55	1982,43
2781,77	1918,95
2782,99	1964,00
2784,20	2078,69
2785,42	1888,23
2786,64	2099,17
2787,86	2105,31
2789,07	2088,93
2790,29	1804,26
2791,51	1869,80
2792,72	2187,23
2793,94	1916,90
2795,15	2344,92
2796,37	2080,74
2797,58	2185,18
2798,80	2187,23
2800,01	2195,42
2801,22	2316,25
2802,44	2201,57
2803,65	2252,77
2804,86	2279,39
2806,07	2723,80
2807,28	2338,78
2808,49	2742,23
2809,70	2602,97
2810,91	2652,12
2812,12	2807,77
2813,33	2711,51
2814,54	2959,31
2815,75	3168,21
2816,96	2668,50
2818,16	2996,18
2819,37	3076,05
2820,58	3436,49
2821,78	3143,63
2822,99	3678,15
2824,20	3493,83
2825,40	3323,85
2826,61	3786,69
2827,81	3725,26
2829,01	3995,59
2830,22	4337,60
2831,42	4100,03
2832,62	4140,99
2833,83	4132,80
2835,03	4835,25
2836,23	4872,12
2837,43	4949,94
2838,63	4765,62
2839,83	4915,13
2841,03	4986,80
2842,23	5212,08
2843,43	5527,47
2844,63	5466,03
2845,83	5425,07
2847,03	5468,08
2848,22	5593,00
2849,42	6080,42
2850,62	5588,91
2851,81	6102,95
2853,01	6530,97
2854,21	6805,40
2855,40	6887,32
2856,60	6381,47
2857,79	7440,27
2858,99	7514,00
2860,18	7511,95
2861,37	8560,51
2862,57	9019,25
2863,76	8994,68
2864,95	9621,36
2866,14	9707,37
2867,33	10727,26
2868,52	11599,70
2869,72	13035,32
2870,91	14001,96
2872,10	15144,73
2873,28	15795,98
2874,47	16174,86
2875,66	16826,11
2876,85	19789,52
2878,04	20111,05
2879,23	20018,89
2880,41	21249,72
2881,60	20989,63
2882,79	21135,04
2883,97	22073,01
2885,16	22525,61
2886,34	21731,00
2887,53	21470,90
2888,71	21720,76
2889,90	21051,07
2891,08	21169,85
2892,26	20336,33
2893,45	20248,27
2894,63	20340,43
2895,81	20213,45
2896,99	19437,27
2898,17	19177,18
2899,36	19267,29
2900,54	18624,23
2901,72	16731,90
2902,90	17452,79
2904,08	17364,73
2905,26	17440,50
2906,43	16922,37
2907,61	17131,26
2908,79	16750,34
2909,97	16787,20
2911,14	16418,57
2912,32	16338,69
2913,50	16873,21
2914,67	15933,20
2915,85	17475,32
2917,02	17764,08
2918,20	18777,83
2919,37	19416,79
2920,55	20420,30
2921,72	19713,75
2922,90	23654,04
2924,07	24413,84
2925,24	28038,74
2926,41	29869,62
2927,58	30604,84
2928,76	33072,65
2929,93	33519,10
2931,10	35352,04
2932,27	35825,12
2933,44	35900,89
2934,61	37060,04
2935,78	33209,86
2936,95	34979,31
2938,11	34600,43
2939,28	34156,02
2940,45	31153,70
2941,62	30449,20
2942,78	27768,41
2943,95	26316,40
2945,12	25622,14
2946,28	24671,88
2947,45	22769,32
2948,61	21286,59
2949,78	20461,26
2950,94	19345,11
2952,10	18034,41
2953,27	16727,81
2954,43	16410,37
2955,59	14972,70
2956,76	14640,93
2957,92	14280,49
2959,08	13883,18
2960,24	13575,98
2961,40	13043,51
2962,56	13213,49
2963,72	13518,64
2964,88	13725,49
2966,04	13717,29
2967,20	13641,52
2968,36	13981,48
2969,52	14378,79
2970,67	14669,60
2971,83	14810,91
2972,99	15898,38
2974,14	15269,65
2975,30	16396,04
2976,46	14642,98
2977,61	18073,32
2978,77	16361,22
2979,92	15691,54
2981,08	16318,21
2982,23	16226,06
2983,38	15447,83
2984,54	15402,77
2985,69	15288,09
2986,84	14513,95
2987,99	13580,08
2989,15	13061,94
2990,30	12097,35
2991,45	10598,24
2992,60	11116,37
2993,75	10696,54
2994,90	9989,99
2996,05	9490,29
2997,20	8589,18
2998,35	8675,20
2999,49	7837,58
3000,64	7376,78
3001,79	7133,08
3002,94	6954,90
3004,08	6188,96
3005,23	6178,72
3006,38	6123,43
3007,52	5840,81
3008,67	5101,49
3009,81	5478,32
3010,96	5244,85
3012,10	4716,47
3013,25	4974,52
3014,39	4704,18
3015,53	4392,89
3016,67	4679,61
3017,82	4450,24
3018,96	4626,36
3020,10	4165,57
3021,24	4300,73
3022,38	4349,89
3023,52	4071,36
3024,66	4290,49
3025,80	4335,55
3026,94	4538,30
3028,08	3997,64
3029,22	4083,65
3030,36	3985,35
3031,50	4163,52
3032,63	4089,79
3033,77	3633,10
3034,91	3887,04
3036,04	4038,59
3037,18	4286,40
3038,32	4335,55
3039,45	3653,58
3040,59	4007,87
3041,72	4241,34
3042,86	4308,93
3043,99	4108,23
3045,12	4114,37
3046,26	4227,01
3047,39	4136,90
3048,52	3983,30
3049,65	4071,36
3050,78	4140,99
3051,92	4079,55
3053,05	4155,33
3054,18	4067,27
3055,31	4116,42
3056,44	4188,10
3057,57	4360,13
3058,70	4331,45
3059,82	4198,34
3060,95	4249,54
3062,08	4145,09
3063,21	3598,28
3064,34	4310,97
3065,46	4403,13
3066,59	4128,71
3067,71	4650,94
3068,84	4341,69
3069,97	4382,65
3071,09	4284,35
3072,22	4374,46
3073,34	4708,28
3074,46	4849,59
3075,59	4919,22
3076,71	4556,73
3077,83	4784,06
3078,96	4691,90
3080,08	5056,43
3081,20	4681,66
3082,32	4794,29
3083,44	4638,65
3084,56	4814,77
3085,68	4997,04
3086,80	4878,26
3087,92	4812,73
3089,04	5054,39
3090,16	5482,41
3091,28	5195,70
3092,40	5228,46
3093,51	5064,63
3094,63	4857,78
3095,75	5316,53
3096,87	4925,36
3097,98	5504,94
3099,10	5257,14
3100,21	4677,56
3101,33	5316,53
3102,44	5572,52
3103,56	5232,56
3104,67	5736,36
3105,79	5701,54
3106,90	5738,41
3108,01	5687,21
3109,12	5595,05
3110,24	5717,93
3111,35	5506,99
3112,46	6471,58
3113,57	6090,66
3114,68	5593,00
3115,79	5441,45
3116,90	6576,03
3118,01	6494,11
3119,12	6649,75
3120,23	6317,98
3121,34	6078,37
3122,45	6250,40
3123,56	6578,08
3124,66	6713,24
3125,77	6662,04
3126,88	6807,45
3127,98	7088,02
3129,09	6946,71
3130,20	6793,11
3131,30	6588,32
3132,41	7100,31
3133,51	7360,40
3134,61	7165,84
3135,72	7217,04
3136,82	7251,86
3137,93	7673,74
3139,03	7597,96
3140,13	7321,49
3141,23	7622,54
3142,33	7782,28
3143,44	7692,17
3144,54	7708,55
3145,64	7679,88
3146,74	7514,00
3147,84	7841,67
3148,94	8320,90
3150,04	8089,48
3151,14	8290,18
3152,23	8290,18
3153,33	8425,34
3154,43	8769,40
3155,53	8519,55
3156,63	9064,31
3157,72	9082,74
3158,82	8951,67
3159,91	8871,80
3161,01	9144,18
3162,11	9041,78
3163,20	9308,02
3164,30	9111,41
3165,39	7292,82
3166,48	9367,41
3167,58	9445,23
3168,67	9465,71
3169,76	9348,98
3170,86	9680,75
3171,95	9885,55
3173,04	9613,17
3174,13	9697,13
3175,22	9729,90
3176,31	9711,47
3177,40	9627,50
3178,49	10184,55
3179,58	10004,33
3180,67	9867,11
3181,76	10506,08
3182,85	10297,19
3183,94	10227,56
3185,03	10426,21
3186,11	9176,95
3187,20	10512,22
3188,29	10315,62
3189,37	10469,22
3190,46	10350,43
3191,55	10217,32
3192,63	10332,00
3193,72	10268,52
3194,80	10385,25
3195,89	10590,05
3196,97	10887,00
3198,05	11360,08
3199,14	10622,81
3200,22	11407,19
3201,30	11020,12
3202,38	10915,67
3203,47	10694,49
3204,55	11179,86
3205,63	11161,43
3206,71	9914,22
3207,79	10669,92
3208,87	11122,52
3209,95	11034,46
3211,03	11753,29
3212,11	11581,26
3213,19	10663,77
3214,27	11319,12
3215,34	11233,11
3216,42	11716,43
3217,50	11241,30
3218,58	11532,11
3219,65	11054,94
3220,73	11702,09
3221,80	11679,57
3222,88	11511,63
3223,96	11859,79
3225,03	11910,99
3226,10	11960,14
3227,18	12181,32
3228,25	11601,74
3229,33	12054,34
3230,40	11452,24
3231,47	11831,12
3232,54	12087,11
3233,62	12031,82
3234,69	12236,61
3235,76	12359,49
3236,83	12683,07
3237,90	12334,92
3238,97	12091,21
3240,04	11882,31
3241,11	11945,80
3242,18	12005,19
3243,25	12283,72
3244,32	10772,32
3245,39	11816,78
3246,45	12492,61
3247,52	12377,92
3248,59	12300,10
3249,66	12396,35
3250,72	12572,48
3251,79	12422,98
3252,85	12734,27
3253,92	12519,23
3254,98	12775,23
3256,05	12234,57
3257,11	12742,46
3258,18	12435,27
3259,24	12410,69
3260,30	12824,38
3261,37	12359,49
3262,43	12711,74
3263,49	12207,94
3264,55	12228,42
3265,62	12635,97
3266,68	12130,12
3267,74	12851,00
3268,80	12480,32
3269,86	12461,89
3270,92	11994,95
3271,98	12515,14
3273,04	12681,02
3274,10	12201,80
3275,16	12212,04
3276,21	12406,59
3277,27	11759,44
3278,33	12300,10
3279,39	12060,49
3280,44	12244,81
3281,50	11876,17
3282,56	11568,98
3283,61	11923,27
3284,67	11890,51
3285,72	12293,96
3286,78	11374,42
3287,83	12250,95
3288,88	11859,79
3289,94	12398,40
3290,99	12148,55
3292,04	10915,67
3293,10	11847,50
3294,15	11800,40
3295,20	12304,20
3296,25	11794,25
3297,30	12113,74
3298,36	11685,71
3299,41	12011,34
3300,46	11550,54
3301,51	11192,15
3302,56	11812,68
3303,61	11751,24
3304,65	12293,96
3305,70	11947,85
3306,75	11573,07
3307,80	11962,19
3308,85	11997,00
3309,89	11704,14
3310,94	12255,04
3311,99	11962,19
3313,03	11419,47
3314,08	11933,51
3315,12	11837,26
3316,17	11867,98
3317,21	12087,11
3318,26	11777,87
3319,30	11874,12
3320,35	12146,50
3321,39	11843,40
3322,43	12218,18
3323,48	12226,37
3324,52	12332,87
3325,56	11478,86
3326,60	12033,86
3327,64	12304,20
3328,68	11824,97
3329,73	11937,61
3330,77	12328,77
3331,81	12015,43
3332,85	12011,34
3333,88	12250,95
3334,92	11747,15
3335,96	11917,13
3337,00	11663,18
3338,04	12298,05
3339,08	12404,55
3340,11	12312,39
3341,15	11878,22
3342,19	12248,90
3343,22	12490,56
3344,26	12146,50
3345,30	12232,52
3346,33	12201,80
3347,37	12031,82
3348,40	12336,96
3349,43	11657,04
3350,47	12255,04
3351,50	12152,65
3352,54	12005,19
3353,57	12504,90
3354,60	12269,38
3355,63	12480,32
3356,67	12394,31
3357,70	12277,57
3358,73	11038,55
3359,76	12212,04
3360,79	11994,95
3361,82	11927,37
3362,85	11849,55
3363,88	12197,70
3364,91	12164,93
3365,94	12056,39
3366,97	11882,31
3367,99	12347,20
3369,02	12388,16
3370,05	11523,92
3371,08	12318,53
3372,10	11743,05
3373,13	12296,00
3374,16	12363,59
3375,18	11999,05
3376,21	12128,07
3377,23	12156,74
3378,26	11997,00
3379,28	12201,80
3380,31	11820,88
3381,33	12445,51
3382,35	12642,11
3383,38	12042,06
3384,40	12332,87
3385,42	11910,99
3386,45	12363,59
3387,47	12259,14
3388,49	12269,38
3389,51	11775,82
3390,53	12220,23
3391,55	12005,19
3392,57	12470,08
3393,59	12107,59
3394,61	12359,49
3395,63	12404,55
3396,65	12119,88
3397,67	11550,54
3398,69	12134,21
3399,70	11798,35
3400,72	12273,48
3401,74	12824,38
3402,76	11429,71
3403,77	12046,15
3404,79	12160,84
3405,80	12107,59
3406,82	11650,89
3407,83	11380,56
3408,85	11792,20
3409,86	11978,57
3410,88	12603,20
3411,89	12508,99
3412,91	12287,81
3413,92	12222,28
3414,93	12281,67
3415,94	12111,69
3416,96	11806,54
3417,97	12062,54
3418,98	12162,89
3419,99	14690,08
3421,00	12697,41
3422,01	12056,39
3423,02	11986,76
3424,03	12040,01
3425,04	11925,32
3426,05	12123,98
3427,06	12736,32
3428,07	12818,24
3429,08	12541,76
3430,09	12087,11
3431,09	12547,90
3432,10	12355,40
3433,11	12758,85
3434,12	12746,56
3435,12	12468,03
3436,13	12382,02
3437,13	12164,93
3438,14	11818,83
3439,14	11953,99
3440,15	11824,97
3441,15	12111,69
3442,16	11892,55
3443,16	12349,25
3444,16	11667,28
3445,17	11831,12
3446,17	11726,67
3447,17	11679,57
3448,17	11994,95
3449,18	11528,02
3450,18	11761,48
3451,18	11851,60
3452,18	11984,71
3453,18	12205,89
3454,18	11679,57
3455,18	11857,74
3456,18	12111,69
3457,18	11943,75
3458,18	11630,41
3459,17	11143,00
3460,17	11323,22
3461,17	10923,87
3462,17	11571,02
3463,17	11718,48
3464,16	11206,48
3465,16	10946,39
3466,15	10919,77
3467,15	11261,78
3468,15	10942,30
3469,14	11229,01
3470,14	11143,00
3471,13	10717,02
3472,13	10561,37
3473,12	11018,07
3474,11	10727,26
3475,11	10590,05
3476,10	10653,53
3477,09	10680,16
3478,08	10690,40
3479,08	10442,59
3480,07	9969,51
3481,06	10329,95
3482,05	9863,02
3483,04	10084,20
3484,03	10327,91
3485,02	9828,20
3486,01	10288,99
3487,00	9564,01
3487,99	9439,09
3488,98	9957,22
3489,97	9516,91
3490,95	10858,33
3491,94	9727,85
3492,93	9887,59
3493,92	9586,54
3494,90	9127,80
3495,89	8851,32
3496,88	9015,16
3497,86	8953,72
3498,85	9283,44
3499,83	9312,11
3500,82	9322,35
3501,80	9072,50
3502,79	8863,61
3503,77	8896,38
3504,75	9187,19
3505,74	9033,59
3506,72	8984,44
3507,70	9095,03
3508,68	8847,22
3509,67	8836,99
3510,65	8710,01
3511,63	8931,19
3512,61	8642,43
3513,59	8396,67
3514,57	8038,28
3515,55	8069,00
3516,53	8447,87
3517,51	8447,87
3518,49	8263,55
3519,47	8396,67
3520,45	7831,43
3521,42	7653,26
3522,40	7921,54
3523,38	8019,85
3524,36	7878,54
3525,33	7849,86
3526,31	7946,12
3527,29	7845,77
3528,26	7710,60
3529,24	7937,93
3530,21	7604,11
3531,19	7464,85
3532,16	7423,89
3533,14	7581,58
3534,11	7792,52
3535,08	7360,40
3536,06	7751,56
3537,03	7374,74
3538,00	7493,52
3538,98	7290,77
3539,95	7305,10
3540,92	7053,20
3541,89	7610,25
3542,86	7016,34
3543,83	7208,85
3544,80	6612,89
3545,77	6977,43
3546,74	6635,42
3547,71	6797,21
3548,68	6686,62
3549,65	6752,15
3550,62	6598,56
3551,59	6610,84
3552,56	6653,85
3553,52	6670,23
3554,49	6457,25
3555,46	6201,25
3556,42	6397,85
3557,39	6141,86
3558,36	6438,81
3559,32	5762,98
3560,29	5902,25
3561,25	5906,34
3562,22	5674,92
3563,18	6193,06
3564,15	4966,32
3565,11	5722,02
3566,07	5719,98
3567,04	5517,23
3568,00	5607,34
3568,96	5087,15
3569,92	5302,19
3570,89	5363,63
3571,85	5537,71
3572,81	5414,83
3573,77	5406,64
3574,73	5152,69
3575,69	5195,70
3576,65	5466,03
3577,61	4958,13
3578,57	5009,33
3579,53	4956,08
3580,49	4872,12
3581,45	4687,80
3582,40	4958,13
3583,36	4450,24
3584,32	4980,66
3585,28	4978,61
3586,23	4626,36
3587,19	4790,20
3588,15	4708,28
3589,10	4732,86
3590,06	4730,81
3591,01	4413,37
3591,97	4347,84
3592,92	4468,67
3593,88	4614,07
3594,83	4423,61
3595,78	4485,05
3596,74	4151,23
3597,69	4171,71
3598,64	4695,99
3599,60	4003,78
3600,55	4239,30
3601,50	4097,99
3602,45	4278,21
3603,40	4497,34
3604,35	4464,57
3605,31	4323,26
3606,26	4204,48
3607,21	4001,73
3608,16	4206,53
3609,10	3983,30
3610,05	4147,14
3611,00	3977,16
3611,95	3960,77
3612,90	3835,85
3613,85	3725,26
3614,79	4069,31
3615,74	3852,23
3616,69	3790,79
3617,63	4001,73
3618,58	3463,12
3619,53	3684,30
3620,47	3592,14
3621,42	3719,11
3622,36	3667,91
3623,31	3235,79
3624,25	3665,86
3625,20	3604,42
3626,14	3682,25
3627,08	3295,18
3628,03	3239,89
3628,97	3528,65
3629,91	3270,61
3630,85	3364,81
3631,80	3563,47
3632,74	3733,45
3633,68	3286,99
3634,62	3127,25
3635,56	3172,30
3636,50	3010,51
3637,44	3102,67
3638,38	3413,96
3639,32	3256,27
3640,26	2781,14
3641,20	3168,21
3642,14	2934,74
3643,08	3022,80
3644,01	3260,37
3644,95	3153,87
3645,89	3022,80
3646,83	3045,33
3647,76	3006,42
3648,70	2891,73
3649,63	2514,91
3650,57	2768,85
3651,51	2869,20
3652,44	2721,75
3653,38	2672,60
3654,31	2656,22
3655,24	2852,82
3656,18	2361,31
3657,11	2863,06
3658,05	2586,58
3658,98	2613,21
3659,91	2615,26
3660,84	2342,88
3661,78	2459,61
3662,71	2381,79
3663,64	2463,71
3664,57	2504,67
3665,50	2271,20
3666,43	2328,54
3667,36	1875,94
3668,29	2054,11
3669,22	2002,91
3670,15	2287,58
3671,08	2033,63
3672,01	2117,60
3672,94	2392,03
3673,86	2133,98
3674,79	1996,77
3675,72	1605,61
3676,65	1714,15
3677,57	1777,64
3678,50	2062,30
3679,43	1642,47
3680,35	1578,98
3681,28	1683,43
3682,20	1773,54
3683,13	1898,47
3684,05	1476,59
3684,98	1542,12
3685,90	1656,81
3686,83	1654,76
3687,75	1865,70
3688,67	1269,74
3689,60	1325,04
3690,52	1351,66
3691,44	1384,43
3692,36	1230,83
3693,28	1466,35
3694,21	1656,81
3695,13	1308,65
3696,05	1386,47
3696,97	1112,05
3697,89	1325,04
3698,81	1023,98
3699,73	1206,25
3700,65	1146,86
3701,57	1056,75
3702,48	1267,69
3703,40	983,03
3704,32	1062,90
3705,24	1206,25
3706,16	1329,13
3707,07	995,31
3707,99	759,80
3708,91	915,44
3709,82	847,86
3710,74	1026,03
3711,66	790,52
3712,57	1138,67
3713,49	1255,40
3714,40	729,08
3715,31	792,56
3716,23	1132,53
3717,14	1003,50
3718,06	927,73
3718,97	849,91
3719,88	595,96
3720,80	972,79
3721,71	0,00
3722,62	718,84
3723,53	0,00
3724,44	614,39
3725,35	0,00
3726,26	778,23
3727,18	-16113,42
3728,09	688,12
3729,00	548,86
3729,91	694,26
3730,81	481,27
3731,72	735,22
3732,63	643,06
3733,54	571,38
3734,45	450,55
3735,36	616,44
3736,26	892,91
3737,17	763,89
3738,08	958,45
3738,99	491,51
3739,89	696,31
3740,80	579,58
3741,70	436,22
3742,61	712,69
3743,51	802,80
3744,42	614,39
3745,32	468,98
3746,23	561,14
3747,13	688,12
3748,04	491,51
3748,94	487,42
3749,84	583,67
3750,74	466,94
3751,65	563,19
3752,55	405,50
3753,45	405,50
3754,35	311,29
3755,25	458,74
3756,16	438,27
3757,06	425,98
3757,96	276,48
3758,86	593,91
3759,76	511,99
3760,66	368,63
3761,55	524,28
3762,45	577,53
3763,35	477,18
3764,25	407,55
3765,15	440,31
3766,05	657,40
3766,94	587,77
3767,84	284,67
3768,74	278,52
3769,63	487,42
3770,53	385,02
3771,43	432,12
3772,32	528,38
3773,22	618,49
3774,11	217,08
3775,01	561,14
3775,90	323,58
3776,80	188,41
3777,69	567,29
3778,58	333,82
3779,48	428,03
3780,37	440,31
3781,26	438,27
3782,16	483,32
3783,05	141,31
3783,94	430,07
3784,83	346,11
3785,72	632,82
3786,61	36,86
3787,50	258,04
3788,39	555,00
3789,28	389,11
3790,17	237,56
3791,06	358,39
3791,95	292,86
3792,84	157,69
3793,73	282,62
3794,62	294,91
3795,51	245,76
3796,39	376,83
3797,28	233,47
3798,17	317,44
3799,06	397,31
3799,94	489,46
3800,83	432,12
3801,71	505,85
3802,60	-106,49
3803,48	561,14
3804,37	428,03
3805,25	243,71
3806,14	124,93
3807,02	157,69
3807,91	274,43
3808,79	548,86
3809,67	585,72
3810,56	462,84
3811,44	350,20
3812,32	374,78
3813,20	122,88
3814,09	466,94
3814,97	129,02
3815,85	487,42
3816,73	331,77
3817,61	315,39
3818,49	466,94
3819,37	-14,34
3820,25	497,66
3821,13	454,65
3822,01	501,75
3822,89	280,57
3823,77	106,49
3824,65	215,04
3825,52	241,66
3826,40	327,67
3827,28	296,96
3828,16	421,88
3829,03	372,73
3829,91	200,70
3830,79	438,27
3831,66	481,27
3832,54	165,89
3833,41	894,96
3834,29	18,43
3835,16	458,75
3836,04	440,31
3836,91	51,20
3837,79	565,24
3838,66	393,21
3839,53	362,49
3840,41	288,76
3841,28	374,78
3842,15	307,20
3843,02	65,53
3843,90	337,91
3844,77	481,27
3845,64	206,84
3846,51	108,54
3847,38	417,79
3848,25	264,19
3849,12	323,58
3849,99	-36,86
3850,86	499,70
3851,73	233,47
3852,60	-6,14
3853,47	333,82
3854,34	286,72
3855,21	186,37
3856,07	143,36
3856,94	165,89
3857,81	518,14
3858,68	67,58
3859,54	497,66
3860,41	335,87
3861,28	200,70
3862,14	471,03
3863,01	403,45
3863,87	270,33
3864,74	-186,37
3865,60	430,07
3866,47	423,93
3867,33	329,72
3868,19	567,29
3869,06	237,56
3869,92	276,48
3870,78	421,88
3871,65	311,29
3872,51	327,67
3873,37	-1820,64
3874,23	253,95
3875,10	311,29
3875,96	-178,17
3876,82	313,34
3877,68	51,20
3878,54	235,52
3879,40	333,82
3880,26	141,31
3881,12	313,34
3881,98	382,97
3882,84	262,14
3883,70	253,95
3884,55	462,84
3885,41	147,45
3886,27	514,04
3887,13	319,48
3887,99	6,14
3888,84	544,76
3889,70	182,27
3890,56	276,48
3891,41	319,48
3892,27	356,35
3893,12	235,52
3893,98	464,89
3894,83	81,92
3895,69	104,45
3896,54	98,30
3897,40	256,00
3898,25	376,83
3899,11	565,24
3899,96	10,24
3900,81	276,48
3901,66	233,47
3902,52	253,95
3903,37	456,70
3904,22	200,70
3905,07	313,34
3905,92	350,20
3906,78	319,48
3907,63	352,25
>>>>>End Processed Spectral Data<<<<<
